PE IR                   SPECTRUM    ASCII       PEDS        1.60        
  -1
1013G~1.ASC
22/04/13
14:49:44.00
22/04/13
14:49:44.00
Admin

650.000000
4









SPECTRUM ONE,CPU32 MAIN 00.02.6000 25-JUNE-2003 12:00:00
MIR TGS
MIR
OPTKBR
68128
0.200000

4.000000
STRONG
RATIO
SPECTRUM
MAGNITUDE
UNIVERSAL ATR
DOUBLE

COMBINED


0


#HDR
-1
-1
#GR
CM-1
%T
0.00002384185791015625
0.0
4000.000000
-1.000000
3351
8
100.302294
57.427172
#DATA
4000.000000	99.618463  
3999.000000	99.647967  
3998.000000	99.677460  
3997.000000	99.706970  
3996.000000	99.736449  
3995.000000	99.766018  
3994.000000	99.788315  
3993.000000	99.805937  
3992.000000	99.819777  
3991.000000	99.827898  
3990.000000	99.829860  
3989.000000	99.830393  
3988.000000	99.837682  
3987.000000	99.855396  
3986.000000	99.875673  
3985.000000	99.882252  
3984.000000	99.864275  
3983.000000	99.829086  
3982.000000	99.798878  
3981.000000	99.791649  
3980.000000	99.805055  
3979.000000	99.819995  
3978.000000	99.820715  
3977.000000	99.809547  
3976.000000	99.801295  
3975.000000	99.804732  
3974.000000	99.812191  
3973.000000	99.807278  
3972.000000	99.780703  
3971.000000	99.738183  
3970.000000	99.695162  
3969.000000	99.666204  
3968.000000	99.658073  
3967.000000	99.670355  
3966.000000	99.700696  
3965.000000	99.748240  
3964.000000	99.810324  
3963.000000	99.875309  
3962.000000	99.921659  
3961.000000	99.929192  
3960.000000	99.895026  
3959.000000	99.838812  
3958.000000	99.791073  
3957.000000	99.772607  
3956.000000	99.781125  
3955.000000	99.795337  
3954.000000	99.792753  
3953.000000	99.767225  
3952.000000	99.732365  
3951.000000	99.709850  
3950.000000	99.713015  
3949.000000	99.739126  
3948.000000	99.774707  
3947.000000	99.806162  
3946.000000	99.825822  
3945.000000	99.831686  
3944.000000	99.825599  
3943.000000	99.813072  
3942.000000	99.802386  
3941.000000	99.801029  
3940.000000	99.812165  
3939.000000	99.833751  
3938.000000	99.858524  
3937.000000	99.874937  
3936.000000	99.872080  
3935.000000	99.846821  
3934.000000	99.807627  
3933.000000	99.771539  
3932.000000	99.753791  
3931.000000	99.757052  
3930.000000	99.771893  
3929.000000	99.788732  
3928.000000	99.806874  
3927.000000	99.830680  
3926.000000	99.858388  
3925.000000	99.878068  
3924.000000	99.876788  
3923.000000	99.853391  
3922.000000	99.821127  
3921.000000	99.798736  
3920.000000	99.797737  
3919.000000	99.815857  
3918.000000	99.842768  
3917.000000	99.870955  
3916.000000	99.897911  
3915.000000	99.920598  
3914.000000	99.932850  
3913.000000	99.929216  
3912.000000	99.909680  
3911.000000	99.879749  
3910.000000	99.845947  
3909.000000	99.812617  
3908.000000	99.782784  
3907.000000	99.759750  
3906.000000	99.746023  
3905.000000	99.742027  
3904.000000	99.747447  
3903.000000	99.761941  
3902.000000	99.782266  
3901.000000	99.799980  
3900.000000	99.805406  
3899.000000	99.794643  
3898.000000	99.770891  
3897.000000	99.741010  
3896.000000	99.713188  
3895.000000	99.696841  
3894.000000	99.701521  
3893.000000	99.730874  
3892.000000	99.774266  
3891.000000	99.809133  
3890.000000	99.819620  
3889.000000	99.810663  
3888.000000	99.802058  
3887.000000	99.808860  
3886.000000	99.825425  
3885.000000	99.833948  
3884.000000	99.825751  
3883.000000	99.805166  
3882.000000	99.780334  
3881.000000	99.756779  
3880.000000	99.738056  
3879.000000	99.730005  
3878.000000	99.739606  
3877.000000	99.769779  
3876.000000	99.813425  
3875.000000	99.851224  
3874.000000	99.865486  
3873.000000	99.855885  
3872.000000	99.832787  
3871.000000	99.802622  
3870.000000	99.765710  
3869.000000	99.725037  
3868.000000	99.691643  
3867.000000	99.680050  
3866.000000	99.697601  
3865.000000	99.734301  
3864.000000	99.767381  
3863.000000	99.782692  
3862.000000	99.785223  
3861.000000	99.789352  
3860.000000	99.806462  
3859.000000	99.834964  
3858.000000	99.856227  
3857.000000	99.843897  
3856.000000	99.781907  
3855.000000	99.686762  
3854.000000	99.612841  
3853.000000	99.596631  
3852.000000	99.611328  
3851.000000	99.613002  
3850.000000	99.589250  
3849.000000	99.566568  
3848.000000	99.578144  
3847.000000	99.626465  
3846.000000	99.690519  
3845.000000	99.748235  
3844.000000	99.791492  
3843.000000	99.824501  
3842.000000	99.848812  
3841.000000	99.856248  
3840.000000	99.838921  
3839.000000	99.802808  
3838.000000	99.764534  
3837.000000	99.732493  
3836.000000	99.700853  
3835.000000	99.665945  
3834.000000	99.637167  
3833.000000	99.627930  
3832.000000	99.643173  
3831.000000	99.676951  
3830.000000	99.718972  
3829.000000	99.762796  
3828.000000	99.806676  
3827.000000	99.848322  
3826.000000	99.882649  
3825.000000	99.904200  
3824.000000	99.908761  
3823.000000	99.893289  
3822.000000	99.857952  
3821.000000	99.809816  
3820.000000	99.759920  
3819.000000	99.716914  
3818.000000	99.687430  
3817.000000	99.679191  
3816.000000	99.690302  
3815.000000	99.701517  
3814.000000	99.698393  
3813.000000	99.687657  
3812.000000	99.686416  
3811.000000	99.703309  
3810.000000	99.731911  
3809.000000	99.760814  
3808.000000	99.784220  
3807.000000	99.799695  
3806.000000	99.802561  
3805.000000	99.791953  
3804.000000	99.779675  
3803.000000	99.784110  
3802.000000	99.806857  
3801.000000	99.821599  
3800.000000	99.801691  
3799.000000	99.749479  
3798.000000	99.691764  
3797.000000	99.654268  
3796.000000	99.640317  
3795.000000	99.638115  
3794.000000	99.641720  
3793.000000	99.654708  
3792.000000	99.680267  
3791.000000	99.714274  
3790.000000	99.750244  
3789.000000	99.785845  
3788.000000	99.819961  
3787.000000	99.847194  
3786.000000	99.859311  
3785.000000	99.851980  
3784.000000	99.828466  
3783.000000	99.797278  
3782.000000	99.768914  
3781.000000	99.753197  
3780.000000	99.753851  
3779.000000	99.764218  
3778.000000	99.772332  
3777.000000	99.771422  
3776.000000	99.764739  
3775.000000	99.760868  
3774.000000	99.764067  
3773.000000	99.771943  
3772.000000	99.782990  
3771.000000	99.801252  
3770.000000	99.830862  
3769.000000	99.867189  
3768.000000	99.896369  
3767.000000	99.904564  
3766.000000	99.889442  
3765.000000	99.863557  
3764.000000	99.844387  
3763.000000	99.841472  
3762.000000	99.852262  
3761.000000	99.866054  
3760.000000	99.873095  
3759.000000	99.874148  
3758.000000	99.878700  
3757.000000	99.891677  
3756.000000	99.906735  
3755.000000	99.911406  
3754.000000	99.893478  
3753.000000	99.849939  
3752.000000	99.795638  
3751.000000	99.749574  
3750.000000	99.709874  
3749.000000	99.661804  
3748.000000	99.605497  
3747.000000	99.558469  
3746.000000	99.530830  
3745.000000	99.511756  
3744.000000	99.490644  
3743.000000	99.472632  
3742.000000	99.471256  
3741.000000	99.498296  
3740.000000	99.554710  
3739.000000	99.625214  
3738.000000	99.681773  
3737.000000	99.700046  
3736.000000	99.685680  
3735.000000	99.673161  
3734.000000	99.683585  
3733.000000	99.698497  
3732.000000	99.688194  
3731.000000	99.651218  
3730.000000	99.611592  
3729.000000	99.593291  
3728.000000	99.609013  
3727.000000	99.656281  
3726.000000	99.717393  
3725.000000	99.771852  
3724.000000	99.810240  
3723.000000	99.833409  
3722.000000	99.844107  
3721.000000	99.844326  
3720.000000	99.837646  
3719.000000	99.829459  
3718.000000	99.823835  
3717.000000	99.821131  
3716.000000	99.820021  
3715.000000	99.821739  
3714.000000	99.829562  
3713.000000	99.842496  
3712.000000	99.850472  
3711.000000	99.839339  
3710.000000	99.803365  
3709.000000	99.751108  
3708.000000	99.702192  
3707.000000	99.675911  
3706.000000	99.675651  
3705.000000	99.689987  
3704.000000	99.710670  
3703.000000	99.739886  
3702.000000	99.778517  
3701.000000	99.815417  
3700.000000	99.834255  
3699.000000	99.830530  
3698.000000	99.817539  
3697.000000	99.813515  
3696.000000	99.821724  
3695.000000	99.827647  
3694.000000	99.815843  
3693.000000	99.787500  
3692.000000	99.764101  
3691.000000	99.771930  
3690.000000	99.815424  
3689.000000	99.865827  
3688.000000	99.886944  
3687.000000	99.869045  
3686.000000	99.832612  
3685.000000	99.803754  
3684.000000	99.790568  
3683.000000	99.786230  
3682.000000	99.785706  
3681.000000	99.790619  
3680.000000	99.804355  
3679.000000	99.826653  
3678.000000	99.849721  
3677.000000	99.859525  
3676.000000	99.844415  
3675.000000	99.804287  
3674.000000	99.747699  
3673.000000	99.684468  
3672.000000	99.631637  
3671.000000	99.615632  
3670.000000	99.646317  
3669.000000	99.700304  
3668.000000	99.741666  
3667.000000	99.752629  
3666.000000	99.746620  
3665.000000	99.750341  
3664.000000	99.773341  
3663.000000	99.802269  
3662.000000	99.816216  
3661.000000	99.803664  
3660.000000	99.771152  
3659.000000	99.737815  
3658.000000	99.722347  
3657.000000	99.731961  
3656.000000	99.758368  
3655.000000	99.784839  
3654.000000	99.797040  
3653.000000	99.786928  
3652.000000	99.751450  
3651.000000	99.694628  
3650.000000	99.634935  
3649.000000	99.596707  
3648.000000	99.583240  
3647.000000	99.574372  
3646.000000	99.558976  
3645.000000	99.549973  
3644.000000	99.559034  
3643.000000	99.581863  
3642.000000	99.611509  
3641.000000	99.644016  
3640.000000	99.673656  
3639.000000	99.694667  
3638.000000	99.707677  
3637.000000	99.719367  
3636.000000	99.732752  
3635.000000	99.740260  
3634.000000	99.731174  
3633.000000	99.706553  
3632.000000	99.683022  
3631.000000	99.679877  
3630.000000	99.697678  
3629.000000	99.711946  
3628.000000	99.702398  
3627.000000	99.676220  
3626.000000	99.653357  
3625.000000	99.653319  
3624.000000	99.684561  
3623.000000	99.732565  
3622.000000	99.771466  
3621.000000	99.777811  
3620.000000	99.742399  
3619.000000	99.683264  
3618.000000	99.633811  
3617.000000	99.612324  
3616.000000	99.611682  
3615.000000	99.613945  
3614.000000	99.606498  
3613.000000	99.592198  
3612.000000	99.585735  
3611.000000	99.597169  
3610.000000	99.623458  
3609.000000	99.652267  
3608.000000	99.670161  
3607.000000	99.671504  
3606.000000	99.663523  
3605.000000	99.663165  
3604.000000	99.686314  
3603.000000	99.732215  
3602.000000	99.779388  
3601.000000	99.804363  
3600.000000	99.802568  
3599.000000	99.787459  
3598.000000	99.771552  
3597.000000	99.753567  
3596.000000	99.723245  
3595.000000	99.675875  
3594.000000	99.619519  
3593.000000	99.568457  
3592.000000	99.535618  
3591.000000	99.532207  
3590.000000	99.567002  
3589.000000	99.636123  
3588.000000	99.711009  
3587.000000	99.746915  
3586.000000	99.716543  
3585.000000	99.634647  
3584.000000	99.551136  
3583.000000	99.515562  
3582.000000	99.538183  
3581.000000	99.590307  
3580.000000	99.637531  
3579.000000	99.663776  
3578.000000	99.668750  
3577.000000	99.654425  
3576.000000	99.623035  
3575.000000	99.587480  
3574.000000	99.573995  
3573.000000	99.604679  
3572.000000	99.676544  
3571.000000	99.759267  
3570.000000	99.813568  
3569.000000	99.817328  
3568.000000	99.782687  
3567.000000	99.742730  
3566.000000	99.713659  
3565.000000	99.682242  
3564.000000	99.635547  
3563.000000	99.584463  
3562.000000	99.548385  
3561.000000	99.532703  
3560.000000	99.529914  
3559.000000	99.532683  
3558.000000	99.542712  
3557.000000	99.568154  
3556.000000	99.611179  
3555.000000	99.658862  
3554.000000	99.688511  
3553.000000	99.684118  
3552.000000	99.649091  
3551.000000	99.602683  
3550.000000	99.565894  
3549.000000	99.550728  
3548.000000	99.556260  
3547.000000	99.569468  
3546.000000	99.572663  
3545.000000	99.555544  
3544.000000	99.523916  
3543.000000	99.498209  
3542.000000	99.500620  
3541.000000	99.539031  
3540.000000	99.600501  
3539.000000	99.659067  
3538.000000	99.690569  
3537.000000	99.685667  
3536.000000	99.654322  
3535.000000	99.618201  
3534.000000	99.595738  
3533.000000	99.592543  
3532.000000	99.604046  
3531.000000	99.624482  
3530.000000	99.651131  
3529.000000	99.678928  
3528.000000	99.695121  
3527.000000	99.685385  
3526.000000	99.646800  
3525.000000	99.592838  
3524.000000	99.544264  
3523.000000	99.515058  
3522.000000	99.506464  
3521.000000	99.511827  
3520.000000	99.523767  
3519.000000	99.535942  
3518.000000	99.542420  
3517.000000	99.541031  
3516.000000	99.537774  
3515.000000	99.543336  
3514.000000	99.561863  
3513.000000	99.585522  
3512.000000	99.603527  
3511.000000	99.614630  
3510.000000	99.625090  
3509.000000	99.634063  
3508.000000	99.629631  
3507.000000	99.604480  
3506.000000	99.569611  
3505.000000	99.546297  
3504.000000	99.545383  
3503.000000	99.558846  
3502.000000	99.571460  
3501.000000	99.575719  
3500.000000	99.574765  
3499.000000	99.576241  
3498.000000	99.585986  
3497.000000	99.603253  
3496.000000	99.617816  
3495.000000	99.614542  
3494.000000	99.587722  
3493.000000	99.552049  
3492.000000	99.534835  
3491.000000	99.553370  
3490.000000	99.598387  
3489.000000	99.640379  
3488.000000	99.654007  
3487.000000	99.639276  
3486.000000	99.619857  
3485.000000	99.620340  
3484.000000	99.643293  
3483.000000	99.665815  
3482.000000	99.659614  
3481.000000	99.616922  
3480.000000	99.557735  
3479.000000	99.511677  
3478.000000	99.493102  
3477.000000	99.492125  
3476.000000	99.487796  
3475.000000	99.470210  
3474.000000	99.448985  
3473.000000	99.440288  
3472.000000	99.447858  
3471.000000	99.458872  
3470.000000	99.458028  
3469.000000	99.443863  
3468.000000	99.430222  
3467.000000	99.431086  
3466.000000	99.445035  
3465.000000	99.456470  
3464.000000	99.453797  
3463.000000	99.445291  
3462.000000	99.452640  
3461.000000	99.486811  
3460.000000	99.533137  
3459.000000	99.564013  
3458.000000	99.564666  
3457.000000	99.543820  
3456.000000	99.521989  
3455.000000	99.513911  
3454.000000	99.521888  
3453.000000	99.539919  
3452.000000	99.560437  
3451.000000	99.579743  
3450.000000	99.599232  
3449.000000	99.619728  
3448.000000	99.633955  
3447.000000	99.629326  
3446.000000	99.602583  
3445.000000	99.568426  
3444.000000	99.549563  
3443.000000	99.558291  
3442.000000	99.588545  
3441.000000	99.623983  
3440.000000	99.650134  
3439.000000	99.659948  
3438.000000	99.653945  
3437.000000	99.638654  
3436.000000	99.623464  
3435.000000	99.616568  
3434.000000	99.622422  
3433.000000	99.640332  
3432.000000	99.662507  
3431.000000	99.675181  
3430.000000	99.667108  
3429.000000	99.639852  
3428.000000	99.608235  
3427.000000	99.589225  
3426.000000	99.591427  
3425.000000	99.613909  
3424.000000	99.649842  
3423.000000	99.687931  
3422.000000	99.713893  
3421.000000	99.717363  
3420.000000	99.699620  
3419.000000	99.672152  
3418.000000	99.646346  
3417.000000	99.626095  
3416.000000	99.609839  
3415.000000	99.596295  
3414.000000	99.585697  
3413.000000	99.577279  
3412.000000	99.570563  
3411.000000	99.571035  
3410.000000	99.589970  
3409.000000	99.632298  
3408.000000	99.683716  
3407.000000	99.715989  
3406.000000	99.711052  
3405.000000	99.680086  
3404.000000	99.655283  
3403.000000	99.660721  
3402.000000	99.691918  
3401.000000	99.723535  
3400.000000	99.734397  
3399.000000	99.724531  
3398.000000	99.710819  
3397.000000	99.708356  
3396.000000	99.716108  
3395.000000	99.719463  
3394.000000	99.705571  
3393.000000	99.675833  
3392.000000	99.643737  
3391.000000	99.622179  
3390.000000	99.615738  
3389.000000	99.624505  
3388.000000	99.649287  
3387.000000	99.687457  
3386.000000	99.724510  
3385.000000	99.736775  
3384.000000	99.709168  
3383.000000	99.651061  
3382.000000	99.591262  
3381.000000	99.555355  
3380.000000	99.548540  
3379.000000	99.560248  
3378.000000	99.582078  
3377.000000	99.616749  
3376.000000	99.669356  
3375.000000	99.734172  
3374.000000	99.793274  
3373.000000	99.827213  
3372.000000	99.825891  
3371.000000	99.791773  
3370.000000	99.737439  
3369.000000	99.681355  
3368.000000	99.641706  
3367.000000	99.628354  
3366.000000	99.636817  
3365.000000	99.650250  
3364.000000	99.650523  
3363.000000	99.630754  
3362.000000	99.598710  
3361.000000	99.568188  
3360.000000	99.548284  
3359.000000	99.541895  
3358.000000	99.550771  
3357.000000	99.575084  
3356.000000	99.606594  
3355.000000	99.629733  
3354.000000	99.635877  
3353.000000	99.633005  
3352.000000	99.635312  
3351.000000	99.645854  
3350.000000	99.656824  
3349.000000	99.665819  
3348.000000	99.681677  
3347.000000	99.710557  
3346.000000	99.744468  
3345.000000	99.770001  
3344.000000	99.782910  
3343.000000	99.786801  
3342.000000	99.781150  
3341.000000	99.760241  
3340.000000	99.724599  
3339.000000	99.684900  
3338.000000	99.650888  
3337.000000	99.622533  
3336.000000	99.597306  
3335.000000	99.581765  
3334.000000	99.587716  
3333.000000	99.615762  
3332.000000	99.648684  
3331.000000	99.665715  
3330.000000	99.661444  
3329.000000	99.646718  
3328.000000	99.632431  
3327.000000	99.618582  
3326.000000	99.602179  
3325.000000	99.589851  
3324.000000	99.594134  
3323.000000	99.616800  
3322.000000	99.642932  
3321.000000	99.655551  
3320.000000	99.652508  
3319.000000	99.645507  
3318.000000	99.645721  
3317.000000	99.654960  
3316.000000	99.668544  
3315.000000	99.680930  
3314.000000	99.688069  
3313.000000	99.688766  
3312.000000	99.685583  
3311.000000	99.681959  
3310.000000	99.677765  
3309.000000	99.670673  
3308.000000	99.662981  
3307.000000	99.663382  
3306.000000	99.678441  
3305.000000	99.702914  
3304.000000	99.721088  
3303.000000	99.719251  
3302.000000	99.697497  
3301.000000	99.669818  
3300.000000	99.652526  
3299.000000	99.651821  
3298.000000	99.661523  
3297.000000	99.671220  
3296.000000	99.674619  
3295.000000	99.670500  
3294.000000	99.660174  
3293.000000	99.647819  
3292.000000	99.640638  
3291.000000	99.643157  
3290.000000	99.650891  
3289.000000	99.653712  
3288.000000	99.646172  
3287.000000	99.631397  
3286.000000	99.615126  
3285.000000	99.600809  
3284.000000	99.591780  
3283.000000	99.592217  
3282.000000	99.601880  
3281.000000	99.614125  
3280.000000	99.624058  
3279.000000	99.635245  
3278.000000	99.652194  
3277.000000	99.668437  
3276.000000	99.670451  
3275.000000	99.655826  
3274.000000	99.640386  
3273.000000	99.641702  
3272.000000	99.659506  
3271.000000	99.678417  
3270.000000	99.688332  
3269.000000	99.694961  
3268.000000	99.707513  
3267.000000	99.721754  
3266.000000	99.722071  
3265.000000	99.700149  
3264.000000	99.665512  
3263.000000	99.634113  
3262.000000	99.610807  
3261.000000	99.589360  
3260.000000	99.568786  
3259.000000	99.561669  
3258.000000	99.581205  
3257.000000	99.623314  
3256.000000	99.667219  
3255.000000	99.693793  
3254.000000	99.700044  
3253.000000	99.696565  
3252.000000	99.696052  
3251.000000	99.705750  
3250.000000	99.725656  
3249.000000	99.749253  
3248.000000	99.768060  
3247.000000	99.779958  
3246.000000	99.792770  
3245.000000	99.815540  
3244.000000	99.845032  
3243.000000	99.864033  
3242.000000	99.855291  
3241.000000	99.816495  
3240.000000	99.761720  
3239.000000	99.710436  
3238.000000	99.675798  
3237.000000	99.659916  
3236.000000	99.655817  
3235.000000	99.653898  
3234.000000	99.649795  
3233.000000	99.647199  
3232.000000	99.651402  
3231.000000	99.660321  
3230.000000	99.664992  
3229.000000	99.660032  
3228.000000	99.650414  
3227.000000	99.645308  
3226.000000	99.647256  
3225.000000	99.649848  
3224.000000	99.644446  
3223.000000	99.627231  
3222.000000	99.602341  
3221.000000	99.581588  
3220.000000	99.578428  
3219.000000	99.596107  
3218.000000	99.621614  
3217.000000	99.636725  
3216.000000	99.636585  
3215.000000	99.633430  
3214.000000	99.640653  
3213.000000	99.657930  
3212.000000	99.674640  
3211.000000	99.683127  
3210.000000	99.684364  
3209.000000	99.684020  
3208.000000	99.687648  
3207.000000	99.697525  
3206.000000	99.709612  
3205.000000	99.714845  
3204.000000	99.707501  
3203.000000	99.691019  
3202.000000	99.671920  
3201.000000	99.650876  
3200.000000	99.626492  
3199.000000	99.606634  
3198.000000	99.606504  
3197.000000	99.631061  
3196.000000	99.665853  
3195.000000	99.691643  
3194.000000	99.704987  
3193.000000	99.718471  
3192.000000	99.742203  
3191.000000	99.771467  
3190.000000	99.793780  
3189.000000	99.802363  
3188.000000	99.798520  
3187.000000	99.784383  
3186.000000	99.760182  
3185.000000	99.729789  
3184.000000	99.702776  
3183.000000	99.685718  
3182.000000	99.674166  
3181.000000	99.659279  
3180.000000	99.641661  
3179.000000	99.631112  
3178.000000	99.630141  
3177.000000	99.626651  
3176.000000	99.611522  
3175.000000	99.597834  
3174.000000	99.610214  
3173.000000	99.653286  
3172.000000	99.700013  
3171.000000	99.716347  
3170.000000	99.692189  
3169.000000	99.644929  
3168.000000	99.599810  
3167.000000	99.573677  
3166.000000	99.571897  
3165.000000	99.589184  
3164.000000	99.611059  
3163.000000	99.622220  
3162.000000	99.618642  
3161.000000	99.609434  
3160.000000	99.605487  
3159.000000	99.609919  
3158.000000	99.621621  
3157.000000	99.642742  
3156.000000	99.675349  
3155.000000	99.710856  
3154.000000	99.730537  
3153.000000	99.722591  
3152.000000	99.696352  
3151.000000	99.673461  
3150.000000	99.664283  
3149.000000	99.658609  
3148.000000	99.641814  
3147.000000	99.613982  
3146.000000	99.587404  
3145.000000	99.570012  
3144.000000	99.560150  
3143.000000	99.556549  
3142.000000	99.563428  
3141.000000	99.582090  
3140.000000	99.605070  
3139.000000	99.623873  
3138.000000	99.636960  
3137.000000	99.645202  
3136.000000	99.645424  
3135.000000	99.635824  
3134.000000	99.623747  
3133.000000	99.619349  
3132.000000	99.622772  
3131.000000	99.625642  
3130.000000	99.625018  
3129.000000	99.627812  
3128.000000	99.639704  
3127.000000	99.656801  
3126.000000	99.671226  
3125.000000	99.678836  
3124.000000	99.677876  
3123.000000	99.666009  
3122.000000	99.644957  
3121.000000	99.625256  
3120.000000	99.619650  
3119.000000	99.630196  
3118.000000	99.644152  
3117.000000	99.643830  
3116.000000	99.621652  
3115.000000	99.587774  
3114.000000	99.563105  
3113.000000	99.561690  
3112.000000	99.578076  
3111.000000	99.594092  
3110.000000	99.599444  
3109.000000	99.601973  
3108.000000	99.614095  
3107.000000	99.632624  
3106.000000	99.638809  
3105.000000	99.619952  
3104.000000	99.586467  
3103.000000	99.563334  
3102.000000	99.564919  
3101.000000	99.580861  
3100.000000	99.588597  
3099.000000	99.578677  
3098.000000	99.564069  
3097.000000	99.563089  
3096.000000	99.576926  
3095.000000	99.588619  
3094.000000	99.583335  
3093.000000	99.564023  
3092.000000	99.546262  
3091.000000	99.543795  
3090.000000	99.561115  
3089.000000	99.593084  
3088.000000	99.625416  
3087.000000	99.639650  
3086.000000	99.625822  
3085.000000	99.591131  
3084.000000	99.551690  
3083.000000	99.516282  
3082.000000	99.482702  
3081.000000	99.448558  
3080.000000	99.418578  
3079.000000	99.399001  
3078.000000	99.390195  
3077.000000	99.388291  
3076.000000	99.390219  
3075.000000	99.393093  
3074.000000	99.391178  
3073.000000	99.378684  
3072.000000	99.356762  
3071.000000	99.335560  
3070.000000	99.327345  
3069.000000	99.336135  
3068.000000	99.352517  
3067.000000	99.359296  
3066.000000	99.345644  
3065.000000	99.317079  
3064.000000	99.289431  
3063.000000	99.271957  
3062.000000	99.259377  
3061.000000	99.242751  
3060.000000	99.224455  
3059.000000	99.216789  
3058.000000	99.225508  
3057.000000	99.240340  
3056.000000	99.245452  
3055.000000	99.236281  
3054.000000	99.221458  
3053.000000	99.209667  
3052.000000	99.200510  
3051.000000	99.189937  
3050.000000	99.179640  
3049.000000	99.175825  
3048.000000	99.179822  
3047.000000	99.184489  
3046.000000	99.180827  
3045.000000	99.164779  
3044.000000	99.136810  
3043.000000	99.098869  
3042.000000	99.054715  
3041.000000	99.010961  
3040.000000	98.973855  
3039.000000	98.943822  
3038.000000	98.913873  
3037.000000	98.873153  
3036.000000	98.813017  
3035.000000	98.732979  
3034.000000	98.642721  
3033.000000	98.556225  
3032.000000	98.480828  
3031.000000	98.412097  
3030.000000	98.339733  
3029.000000	98.255956  
3028.000000	98.156613  
3027.000000	98.038284  
3026.000000	97.899414  
3025.000000	97.743315  
3024.000000	97.575558  
3023.000000	97.398021  
3022.000000	97.207925  
3021.000000	97.001512  
3020.000000	96.775535  
3019.000000	96.527564  
3018.000000	96.260405  
3017.000000	95.985546  
3016.000000	95.716013  
3015.000000	95.455042  
3014.000000	95.198286  
3013.000000	94.949064  
3012.000000	94.726175  
3011.000000	94.554037  
3010.000000	94.450006  
3009.000000	94.422253  
3008.000000	94.470863  
3007.000000	94.582532  
3006.000000	94.728657  
3005.000000	94.880214  
3004.000000	95.028334  
3003.000000	95.185599  
3002.000000	95.364816  
3001.000000	95.560916  
3000.000000	95.755177  
2999.000000	95.932323  
2998.000000	96.088808  
2997.000000	96.226992  
2996.000000	96.346531  
2995.000000	96.443081  
2994.000000	96.513356  
2993.000000	96.559483  
2992.000000	96.587886  
2991.000000	96.603816  
2990.000000	96.607430  
2989.000000	96.596169  
2988.000000	96.570526  
2987.000000	96.535046  
2986.000000	96.492444  
2985.000000	96.438998  
2984.000000	96.369200  
2983.000000	96.284528  
2982.000000	96.193156  
2981.000000	96.097863  
2980.000000	95.986235  
2979.000000	95.837601  
2978.000000	95.640766  
2977.000000	95.402149  
2976.000000	95.135545  
2975.000000	94.847690  
2974.000000	94.536237  
2973.000000	94.197386  
2972.000000	93.828838  
2971.000000	93.425917  
2970.000000	92.981655  
2969.000000	92.494351  
2968.000000	91.971819  
2967.000000	91.425902  
2966.000000	90.865927  
2965.000000	90.300619  
2964.000000	89.742976  
2963.000000	89.207229  
2962.000000	88.699412  
2961.000000	88.213302  
2960.000000	87.738316  
2959.000000	87.272690  
2958.000000	86.830311  
2957.000000	86.434624  
2956.000000	86.103849  
2955.000000	85.840143  
2954.000000	85.633049  
2953.000000	85.472993  
2952.000000	85.357620  
2951.000000	85.281523  
2950.000000	85.221360  
2949.000000	85.136843  
2948.000000	84.990314  
2947.000000	84.764401  
2946.000000	84.460403  
2945.000000	84.081164  
2944.000000	83.617119  
2943.000000	83.047619  
2942.000000	82.355474  
2941.000000	81.542354  
2940.000000	80.631053  
2939.000000	79.651304  
2938.000000	78.621577  
2937.000000	77.545518  
2936.000000	76.425073  
2935.000000	75.274192  
2934.000000	74.118084  
2933.000000	72.982774  
2932.000000	71.889085  
2931.000000	70.854190  
2930.000000	69.893234  
2929.000000	69.018540  
2928.000000	68.243310  
2927.000000	67.589556  
2926.000000	67.088938  
2925.000000	66.771917  
2924.000000	66.657369  
2923.000000	66.753724  
2922.000000	67.064037  
2921.000000	67.584104  
2920.000000	68.297272  
2919.000000	69.175154  
2918.000000	70.182460  
2917.000000	71.278989  
2916.000000	72.420946  
2915.000000	73.566931  
2914.000000	74.685583  
2913.000000	75.758285  
2912.000000	76.776351  
2911.000000	77.737108  
2910.000000	78.640858  
2909.000000	79.488711  
2908.000000	80.281772  
2907.000000	81.022203  
2906.000000	81.714709  
2905.000000	82.366537  
2904.000000	82.985108  
2903.000000	83.574255  
2902.000000	84.132743  
2901.000000	84.658544  
2900.000000	85.155876  
2899.000000	85.636269  
2898.000000	86.110674  
2897.000000	86.582463  
2896.000000	87.048877  
2895.000000	87.507429  
2894.000000	87.956302  
2893.000000	88.388799  
2892.000000	88.792041  
2891.000000	89.154778  
2890.000000	89.476944  
2889.000000	89.770278  
2888.000000	90.048272  
2887.000000	90.313810  
2886.000000	90.556384  
2885.000000	90.762210  
2884.000000	90.926196  
2883.000000	91.050270  
2882.000000	91.129760  
2881.000000	91.147150  
2880.000000	91.084245  
2879.000000	90.938454  
2878.000000	90.722976  
2877.000000	90.454237  
2876.000000	90.146137  
2875.000000	89.817416  
2874.000000	89.497494  
2873.000000	89.218399  
2872.000000	88.998802  
2871.000000	88.831852  
2870.000000	88.682834  
2869.000000	88.497008  
2868.000000	88.216085  
2867.000000	87.795003  
2866.000000	87.208123  
2865.000000	86.446135  
2864.000000	85.515262  
2863.000000	84.441239  
2862.000000	83.266723  
2861.000000	82.037085  
2860.000000	80.789469  
2859.000000	79.559704  
2858.000000	78.398425  
2857.000000	77.378609  
2856.000000	76.588518  
2855.000000	76.116869  
2854.000000	76.031381  
2853.000000	76.356280  
2852.000000	77.065197  
2851.000000	78.097902  
2850.000000	79.383233  
2849.000000	80.844756  
2848.000000	82.395180  
2847.000000	83.943983  
2846.000000	85.420604  
2845.000000	86.788336  
2844.000000	88.033846  
2843.000000	89.149432  
2842.000000	90.131827  
2841.000000	90.993383  
2840.000000	91.760926  
2839.000000	92.455607  
2838.000000	93.077231  
2837.000000	93.614130  
2836.000000	94.065949  
2835.000000	94.450363  
2834.000000	94.788585  
2833.000000	95.091941  
2832.000000	95.365129  
2831.000000	95.615885  
2830.000000	95.855292  
2829.000000	96.090297  
2828.000000	96.319211  
2827.000000	96.533557  
2826.000000	96.723073  
2825.000000	96.883003  
2824.000000	97.020624  
2823.000000	97.152145  
2822.000000	97.288576  
2821.000000	97.425206  
2820.000000	97.548239  
2819.000000	97.649916  
2818.000000	97.733806  
2817.000000	97.807920  
2816.000000	97.878513  
2815.000000	97.949577  
2814.000000	98.021779  
2813.000000	98.090857  
2812.000000	98.152252  
2811.000000	98.208096  
2810.000000	98.264346  
2809.000000	98.320645  
2808.000000	98.369802  
2807.000000	98.409372  
2806.000000	98.446444  
2805.000000	98.487066  
2804.000000	98.527767  
2803.000000	98.562983  
2802.000000	98.594739  
2801.000000	98.627630  
2800.000000	98.658929  
2799.000000	98.682617  
2798.000000	98.701050  
2797.000000	98.723646  
2796.000000	98.753543  
2795.000000	98.783418  
2794.000000	98.806115  
2793.000000	98.822920  
2792.000000	98.839490  
2791.000000	98.859920  
2790.000000	98.887409  
2789.000000	98.924463  
2788.000000	98.967998  
2787.000000	99.008714  
2786.000000	99.039911  
2785.000000	99.064162  
2784.000000	99.087403  
2783.000000	99.109206  
2782.000000	99.123225  
2781.000000	99.125800  
2780.000000	99.120439  
2779.000000	99.114623  
2778.000000	99.115020  
2777.000000	99.124646  
2776.000000	99.141512  
2775.000000	99.160436  
2774.000000	99.178202  
2773.000000	99.196036  
2772.000000	99.214775  
2771.000000	99.229162  
2770.000000	99.230596  
2769.000000	99.216216  
2768.000000	99.193163  
2767.000000	99.173524  
2766.000000	99.165996  
2765.000000	99.171494  
2764.000000	99.184406  
2763.000000	99.197937  
2762.000000	99.209765  
2761.000000	99.222501  
2760.000000	99.238008  
2759.000000	99.252759  
2758.000000	99.260983  
2757.000000	99.261676  
2756.000000	99.260358  
2755.000000	99.263868  
2754.000000	99.274500  
2753.000000	99.288042  
2752.000000	99.296123  
2751.000000	99.292622  
2750.000000	99.281136  
2749.000000	99.275272  
2748.000000	99.287483  
2747.000000	99.316574  
2746.000000	99.347812  
2745.000000	99.365248  
2744.000000	99.362304  
2743.000000	99.342854  
2742.000000	99.317700  
2741.000000	99.300421  
2740.000000	99.300515  
2739.000000	99.315806  
2738.000000	99.333309  
2737.000000	99.340170  
2736.000000	99.332787  
2735.000000	99.315120  
2734.000000	99.292791  
2733.000000	99.272514  
2732.000000	99.263724  
2731.000000	99.273765  
2730.000000	99.299366  
2729.000000	99.326047  
2728.000000	99.338823  
2727.000000	99.333667  
2726.000000	99.318641  
2725.000000	99.304849  
2724.000000	99.297065  
2723.000000	99.292463  
2722.000000	99.286736  
2721.000000	99.279800  
2720.000000	99.275654  
2719.000000	99.278949  
2718.000000	99.292593  
2717.000000	99.315318  
2716.000000	99.338460  
2715.000000	99.348726  
2714.000000	99.340766  
2713.000000	99.326640  
2712.000000	99.325546  
2711.000000	99.342252  
2710.000000	99.362434  
2709.000000	99.372052  
2708.000000	99.373176  
2707.000000	99.374506  
2706.000000	99.373840  
2705.000000	99.361116  
2704.000000	99.336311  
2703.000000	99.313452  
2702.000000	99.305566  
2701.000000	99.313550  
2700.000000	99.331108  
2699.000000	99.351680  
2698.000000	99.367406  
2697.000000	99.370169  
2696.000000	99.360514  
2695.000000	99.350396  
2694.000000	99.350523  
2693.000000	99.358079  
2692.000000	99.362091  
2691.000000	99.357797  
2690.000000	99.349517  
2689.000000	99.341394  
2688.000000	99.332400  
2687.000000	99.321046  
2686.000000	99.309118  
2685.000000	99.298455  
2684.000000	99.288192  
2683.000000	99.278213  
2682.000000	99.272958  
2681.000000	99.278357  
2680.000000	99.294398  
2679.000000	99.311917  
2678.000000	99.318456  
2677.000000	99.309501  
2676.000000	99.294962  
2675.000000	99.292150  
2674.000000	99.309271  
2673.000000	99.335943  
2672.000000	99.352655  
2671.000000	99.349910  
2670.000000	99.335617  
2669.000000	99.323451  
2668.000000	99.317649  
2667.000000	99.312347  
2666.000000	99.303939  
2665.000000	99.299026  
2664.000000	99.307141  
2663.000000	99.327889  
2662.000000	99.350197  
2661.000000	99.365663  
2660.000000	99.377856  
2659.000000	99.393695  
2658.000000	99.409108  
2657.000000	99.411860  
2656.000000	99.399541  
2655.000000	99.385172  
2654.000000	99.379209  
2653.000000	99.374487  
2652.000000	99.359622  
2651.000000	99.342269  
2650.000000	99.344642  
2649.000000	99.373574  
2648.000000	99.408038  
2647.000000	99.424029  
2646.000000	99.423128  
2645.000000	99.426623  
2644.000000	99.446051  
2643.000000	99.470287  
2642.000000	99.481117  
2641.000000	99.472795  
2640.000000	99.454589  
2639.000000	99.441105  
2638.000000	99.442830  
2637.000000	99.460041  
2636.000000	99.481466  
2635.000000	99.492018  
2634.000000	99.485825  
2633.000000	99.471033  
2632.000000	99.460347  
2631.000000	99.458374  
2630.000000	99.458998  
2629.000000	99.452226  
2628.000000	99.432119  
2627.000000	99.401487  
2626.000000	99.372416  
2625.000000	99.360681  
2624.000000	99.375500  
2623.000000	99.412867  
2622.000000	99.458518  
2621.000000	99.496586  
2620.000000	99.516579  
2619.000000	99.516692  
2618.000000	99.503838  
2617.000000	99.488548  
2616.000000	99.476618  
2615.000000	99.466728  
2614.000000	99.457781  
2613.000000	99.454838  
2612.000000	99.463171  
2611.000000	99.479102  
2610.000000	99.493510  
2609.000000	99.504111  
2608.000000	99.517044  
2607.000000	99.534806  
2606.000000	99.550369  
2605.000000	99.557839  
2604.000000	99.562249  
2603.000000	99.571460  
2602.000000	99.582363  
2601.000000	99.583488  
2600.000000	99.570274  
2599.000000	99.550192  
2598.000000	99.532520  
2597.000000	99.520783  
2596.000000	99.516822  
2595.000000	99.523359  
2594.000000	99.536671  
2593.000000	99.543117  
2592.000000	99.531888  
2591.000000	99.510226  
2590.000000	99.498942  
2589.000000	99.511343  
2588.000000	99.540760  
2587.000000	99.569973  
2586.000000	99.589125  
2585.000000	99.602334  
2584.000000	99.619128  
2583.000000	99.642057  
2582.000000	99.663154  
2581.000000	99.672943  
2580.000000	99.673218  
2579.000000	99.678218  
2578.000000	99.699197  
2577.000000	99.728576  
2576.000000	99.744916  
2575.000000	99.736187  
2574.000000	99.713929  
2573.000000	99.700143  
2572.000000	99.702325  
2571.000000	99.706210  
2570.000000	99.693277  
2569.000000	99.661555  
2568.000000	99.627689  
2567.000000	99.610903  
2566.000000	99.616474  
2565.000000	99.632868  
2564.000000	99.642716  
2563.000000	99.636632  
2562.000000	99.617698  
2561.000000	99.594638  
2560.000000	99.573756  
2559.000000	99.559030  
2558.000000	99.555893  
2557.000000	99.567481  
2556.000000	99.585580  
2555.000000	99.592544  
2554.000000	99.579317  
2553.000000	99.559640  
2552.000000	99.559340  
2551.000000	99.589949  
2550.000000	99.637460  
2549.000000	99.678515  
2548.000000	99.702894  
2547.000000	99.716683  
2546.000000	99.727562  
2545.000000	99.733418  
2544.000000	99.725166  
2543.000000	99.696111  
2542.000000	99.647792  
2541.000000	99.590450  
2540.000000	99.539222  
2539.000000	99.507168  
2538.000000	99.500100  
2537.000000	99.518063  
2536.000000	99.558797  
2535.000000	99.614130  
2534.000000	99.663736  
2533.000000	99.683034  
2532.000000	99.666073  
2531.000000	99.635957  
2530.000000	99.622860  
2529.000000	99.631990  
2528.000000	99.640872  
2527.000000	99.627971  
2526.000000	99.594831  
2525.000000	99.559178  
2524.000000	99.538884  
2523.000000	99.548511  
2522.000000	99.597259  
2521.000000	99.674436  
2520.000000	99.743277  
2519.000000	99.767611  
2518.000000	99.747421  
2517.000000	99.715461  
2516.000000	99.697192  
2515.000000	99.688352  
2514.000000	99.675840  
2513.000000	99.662660  
2512.000000	99.658862  
2511.000000	99.660647  
2510.000000	99.656870  
2509.000000	99.651916  
2508.000000	99.664311  
2507.000000	99.700636  
2506.000000	99.745250  
2505.000000	99.780898  
2504.000000	99.807934  
2503.000000	99.835067  
2502.000000	99.858987  
2501.000000	99.864317  
2500.000000	99.843838  
2499.000000	99.811893  
2498.000000	99.793355  
2497.000000	99.798517  
2496.000000	99.810783  
2495.000000	99.803325  
2494.000000	99.768858  
2493.000000	99.726759  
2492.000000	99.696821  
2491.000000	99.675453  
2490.000000	99.649418  
2489.000000	99.626961  
2488.000000	99.636950  
2487.000000	99.692203  
2486.000000	99.766606  
2485.000000	99.815887  
2484.000000	99.813955  
2483.000000	99.765513  
2482.000000	99.695553  
2481.000000	99.636823  
2480.000000	99.617245  
2479.000000	99.643164  
2478.000000	99.693114  
2477.000000	99.734828  
2476.000000	99.748880  
2475.000000	99.734134  
2474.000000	99.698399  
2473.000000	99.654119  
2472.000000	99.619315  
2471.000000	99.610138  
2470.000000	99.628570  
2469.000000	99.661898  
2468.000000	99.694867  
2467.000000	99.719379  
2466.000000	99.735348  
2465.000000	99.748611  
2464.000000	99.766310  
2463.000000	99.787536  
2462.000000	99.799575  
2461.000000	99.790340  
2460.000000	99.764174  
2459.000000	99.738554  
2458.000000	99.725210  
2457.000000	99.720910  
2456.000000	99.716752  
2455.000000	99.709418  
2454.000000	99.702510  
2453.000000	99.703848  
2452.000000	99.722320  
2451.000000	99.759136  
2450.000000	99.798780  
2449.000000	99.816086  
2448.000000	99.798228  
2447.000000	99.756530  
2446.000000	99.713817  
2445.000000	99.684819  
2444.000000	99.671185  
2443.000000	99.668724  
2442.000000	99.672754  
2441.000000	99.678974  
2440.000000	99.685144  
2439.000000	99.692151  
2438.000000	99.700769  
2437.000000	99.707800  
2436.000000	99.706318  
2435.000000	99.688172  
2434.000000	99.647848  
2433.000000	99.591177  
2432.000000	99.542921  
2431.000000	99.536409  
2430.000000	99.584018  
2429.000000	99.657545  
2428.000000	99.707069  
2427.000000	99.704638  
2426.000000	99.666747  
2425.000000	99.633306  
2424.000000	99.630789  
2423.000000	99.658808  
2422.000000	99.703976  
2421.000000	99.753724  
2420.000000	99.794653  
2419.000000	99.809762  
2418.000000	99.790137  
2417.000000	99.749210  
2416.000000	99.715680  
2415.000000	99.707996  
2414.000000	99.720918  
2413.000000	99.739445  
2412.000000	99.757663  
2411.000000	99.776157  
2410.000000	99.787047  
2409.000000	99.774848  
2408.000000	99.734793  
2407.000000	99.681418  
2406.000000	99.634740  
2405.000000	99.604108  
2404.000000	99.589047  
2403.000000	99.588418  
2402.000000	99.600899  
2401.000000	99.619520  
2400.000000	99.633501  
2399.000000	99.636555  
2398.000000	99.630401  
2397.000000	99.622022  
2396.000000	99.621415  
2395.000000	99.638686  
2394.000000	99.675087  
2393.000000	99.715661  
2392.000000	99.738332  
2391.000000	99.734964  
2390.000000	99.719559  
2389.000000	99.711732  
2388.000000	99.715253  
2387.000000	99.717003  
2386.000000	99.703966  
2385.000000	99.675971  
2384.000000	99.643442  
2383.000000	99.618722  
2382.000000	99.609762  
2381.000000	99.614934  
2380.000000	99.620785  
2379.000000	99.612103  
2378.000000	99.590804  
2377.000000	99.578808  
2376.000000	99.590717  
2375.000000	99.606884  
2374.000000	99.590533  
2373.000000	99.535080  
2372.000000	99.480136  
2371.000000	99.470524  
2370.000000	99.511978  
2369.000000	99.574973  
2368.000000	99.624569  
2367.000000	99.634091  
2366.000000	99.592021  
2365.000000	99.520012  
2364.000000	99.468453  
2363.000000	99.468894  
2362.000000	99.505969  
2361.000000	99.548956  
2360.000000	99.586111  
2359.000000	99.615006  
2358.000000	99.616078  
2357.000000	99.578667  
2356.000000	99.541586  
2355.000000	99.553359  
2354.000000	99.617652  
2353.000000	99.686320  
2352.000000	99.707024  
2351.000000	99.667856  
2350.000000	99.595711  
2349.000000	99.538239  
2348.000000	99.523451  
2347.000000	99.548283  
2346.000000	99.588667  
2345.000000	99.602945  
2344.000000	99.566442  
2343.000000	99.488039  
2342.000000	99.415587  
2341.000000	99.392441  
2340.000000	99.424643  
2339.000000	99.488533  
2338.000000	99.541826  
2337.000000	99.567826  
2336.000000	99.577351  
2335.000000	99.584239  
2334.000000	99.580129  
2333.000000	99.561145  
2332.000000	99.545770  
2331.000000	99.565522  
2330.000000	99.619429  
2329.000000	99.683953  
2328.000000	99.728479  
2327.000000	99.738150  
2326.000000	99.708476  
2325.000000	99.639541  
2324.000000	99.553189  
2323.000000	99.479881  
2322.000000	99.452578  
2321.000000	99.482355  
2320.000000	99.553039  
2319.000000	99.633585  
2318.000000	99.689231  
2317.000000	99.710987  
2316.000000	99.708791  
2315.000000	99.704609  
2314.000000	99.705172  
2313.000000	99.707974  
2312.000000	99.703045  
2311.000000	99.684389  
2310.000000	99.647420  
2309.000000	99.597690  
2308.000000	99.549279  
2307.000000	99.518064  
2306.000000	99.510455  
2305.000000	99.525047  
2304.000000	99.555340  
2303.000000	99.590208  
2302.000000	99.613165  
2301.000000	99.614163  
2300.000000	99.594878  
2299.000000	99.565887  
2298.000000	99.536330  
2297.000000	99.517778  
2296.000000	99.524484  
2295.000000	99.563189  
2294.000000	99.621527  
2293.000000	99.675945  
2292.000000	99.709567  
2291.000000	99.715611  
2290.000000	99.693729  
2289.000000	99.653614  
2288.000000	99.620358  
2287.000000	99.615866  
2286.000000	99.633504  
2285.000000	99.641912  
2284.000000	99.621047  
2283.000000	99.583218  
2282.000000	99.554808  
2281.000000	99.547692  
2280.000000	99.557137  
2279.000000	99.579045  
2278.000000	99.616369  
2277.000000	99.668945  
2276.000000	99.724743  
2275.000000	99.766237  
2274.000000	99.784875  
2273.000000	99.790298  
2272.000000	99.800623  
2271.000000	99.821194  
2270.000000	99.838085  
2269.000000	99.837869  
2268.000000	99.824967  
2267.000000	99.807397  
2266.000000	99.774800  
2265.000000	99.712529  
2264.000000	99.637181  
2263.000000	99.594153  
2262.000000	99.608394  
2261.000000	99.652362  
2260.000000	99.676726  
2259.000000	99.664473  
2258.000000	99.644767  
2257.000000	99.658549  
2256.000000	99.720376  
2255.000000	99.808819  
2254.000000	99.883188  
2253.000000	99.910995  
2252.000000	99.886985  
2251.000000	99.831274  
2250.000000	99.771263  
2249.000000	99.728791  
2248.000000	99.719106  
2247.000000	99.749049  
2246.000000	99.806860  
2245.000000	99.859047  
2244.000000	99.871136  
2243.000000	99.839587  
2242.000000	99.801444  
2241.000000	99.803488  
2240.000000	99.854124  
2239.000000	99.909443  
2238.000000	99.916682  
2237.000000	99.869380  
2236.000000	99.805896  
2235.000000	99.754911  
2234.000000	99.708850  
2233.000000	99.661176  
2232.000000	99.637581  
2231.000000	99.658869  
2230.000000	99.691408  
2229.000000	99.674931  
2228.000000	99.598637  
2227.000000	99.513467  
2226.000000	99.465494  
2225.000000	99.452615  
2224.000000	99.456829  
2223.000000	99.485376  
2222.000000	99.556184  
2221.000000	99.662723  
2220.000000	99.776395  
2219.000000	99.873270  
2218.000000	99.943031  
2217.000000	99.983184  
2216.000000	99.999993  
2215.000000	100.007896 
2214.000000	100.017555 
2213.000000	100.029007 
2212.000000	100.037869 
2211.000000	100.037657 
2210.000000	100.018123 
2209.000000	99.979913  
2208.000000	99.949301  
2207.000000	99.951707  
2206.000000	99.965737  
2205.000000	99.934000  
2204.000000	99.835790  
2203.000000	99.723222  
2202.000000	99.666614  
2201.000000	99.684729  
2200.000000	99.743968  
2199.000000	99.800486  
2198.000000	99.819542  
2197.000000	99.781612  
2196.000000	99.705914  
2195.000000	99.649748  
2194.000000	99.647396  
2193.000000	99.660704  
2192.000000	99.629086  
2191.000000	99.562902  
2190.000000	99.541357  
2189.000000	99.609109  
2188.000000	99.717821  
2187.000000	99.793180  
2186.000000	99.822646  
2185.000000	99.841642  
2184.000000	99.855850  
2183.000000	99.824492  
2182.000000	99.728824  
2181.000000	99.623233  
2180.000000	99.592165  
2179.000000	99.667450  
2178.000000	99.803441  
2177.000000	99.921812  
2176.000000	99.966110  
2175.000000	99.919470  
2174.000000	99.797624  
2173.000000	99.647847  
2172.000000	99.541383  
2171.000000	99.532390  
2170.000000	99.606241  
2169.000000	99.678559  
2168.000000	99.667857  
2167.000000	99.574786  
2166.000000	99.480528  
2165.000000	99.463611  
2164.000000	99.522208  
2163.000000	99.583809  
2162.000000	99.587286  
2161.000000	99.550085  
2160.000000	99.553960  
2159.000000	99.663538  
2158.000000	99.864648  
2157.000000	100.083146 
2156.000000	100.243947 
2155.000000	100.302294 
2154.000000	100.250162 
2153.000000	100.121589 
2152.000000	99.976005  
2151.000000	99.854052  
2150.000000	99.754684  
2149.000000	99.661428  
2148.000000	99.578467  
2147.000000	99.530028  
2146.000000	99.535006  
2145.000000	99.593397  
2144.000000	99.685377  
2143.000000	99.769213  
2142.000000	99.795741  
2141.000000	99.752840  
2140.000000	99.689798  
2139.000000	99.670199  
2138.000000	99.701485  
2137.000000	99.732380  
2136.000000	99.719852  
2135.000000	99.672405  
2134.000000	99.620665  
2133.000000	99.575457  
2132.000000	99.532805  
2131.000000	99.500043  
2130.000000	99.495530  
2129.000000	99.529272  
2128.000000	99.596721  
2127.000000	99.685747  
2126.000000	99.776573  
2125.000000	99.839091  
2124.000000	99.847764  
2123.000000	99.806900  
2122.000000	99.754458  
2121.000000	99.730708  
2120.000000	99.737992  
2119.000000	99.735203  
2118.000000	99.679606  
2117.000000	99.575915  
2116.000000	99.477382  
2115.000000	99.435283  
2114.000000	99.455442  
2113.000000	99.508485  
2112.000000	99.570312  
2111.000000	99.636435  
2110.000000	99.702392  
2109.000000	99.753031  
2108.000000	99.778328  
2107.000000	99.784781  
2106.000000	99.783003  
2105.000000	99.774338  
2104.000000	99.755312  
2103.000000	99.725550  
2102.000000	99.685881  
2101.000000	99.637828  
2100.000000	99.591038  
2099.000000	99.563283  
2098.000000	99.565536  
2097.000000	99.589876  
2096.000000	99.616088  
2095.000000	99.627660  
2094.000000	99.620747  
2093.000000	99.603569  
2092.000000	99.588812  
2091.000000	99.581823  
2090.000000	99.575986  
2089.000000	99.563886  
2088.000000	99.549978  
2087.000000	99.544370  
2086.000000	99.547260  
2085.000000	99.550476  
2084.000000	99.553201  
2083.000000	99.562923  
2082.000000	99.578772  
2081.000000	99.587447  
2080.000000	99.581127  
2079.000000	99.568028  
2078.000000	99.559195  
2077.000000	99.554690  
2076.000000	99.549404  
2075.000000	99.544540  
2074.000000	99.546378  
2073.000000	99.558428  
2072.000000	99.578386  
2071.000000	99.597605  
2070.000000	99.602035  
2069.000000	99.581687  
2068.000000	99.543259  
2067.000000	99.509499  
2066.000000	99.505411  
2065.000000	99.543627  
2064.000000	99.611463  
2063.000000	99.664053  
2062.000000	99.644124  
2061.000000	99.533240  
2060.000000	99.384546  
2059.000000	99.283050  
2058.000000	99.271702  
2057.000000	99.330367  
2056.000000	99.420895  
2055.000000	99.525635  
2054.000000	99.632931  
2053.000000	99.710467  
2052.000000	99.716379  
2051.000000	99.633478  
2050.000000	99.490463  
2049.000000	99.356309  
2048.000000	99.299386  
2047.000000	99.331266  
2046.000000	99.396657  
2045.000000	99.433696  
2044.000000	99.437096  
2043.000000	99.438715  
2042.000000	99.436513  
2041.000000	99.385617  
2040.000000	99.271017  
2039.000000	99.151049  
2038.000000	99.107516  
2037.000000	99.172322  
2036.000000	99.308944  
2035.000000	99.446560  
2034.000000	99.527509  
2033.000000	99.549696  
2032.000000	99.570675  
2031.000000	99.640735  
2030.000000	99.733676  
2029.000000	99.780639  
2028.000000	99.771333  
2027.000000	99.765222  
2026.000000	99.789576  
2025.000000	99.789266  
2024.000000	99.711646  
2023.000000	99.590636  
2022.000000	99.501674  
2021.000000	99.469061  
2020.000000	99.462041  
2019.000000	99.458069  
2018.000000	99.460186  
2017.000000	99.462012  
2016.000000	99.444006  
2015.000000	99.411428  
2014.000000	99.401129  
2013.000000	99.437373  
2012.000000	99.495602  
2011.000000	99.520592  
2010.000000	99.478741  
2009.000000	99.394027  
2008.000000	99.332301  
2007.000000	99.343197  
2006.000000	99.420183  
2005.000000	99.519521  
2004.000000	99.601726  
2003.000000	99.638741  
2002.000000	99.603942  
2001.000000	99.496558  
2000.000000	99.372333  
1999.000000	99.309263  
1998.000000	99.333531  
1997.000000	99.402866  
1996.000000	99.470230  
1995.000000	99.534685  
1994.000000	99.612285  
1993.000000	99.685226  
1992.000000	99.709912  
1991.000000	99.669656  
1990.000000	99.597972  
1989.000000	99.553315  
1988.000000	99.576005  
1987.000000	99.653173  
1986.000000	99.721735  
1985.000000	99.724558  
1984.000000	99.666528  
1983.000000	99.596604  
1982.000000	99.543824  
1981.000000	99.503522  
1980.000000	99.482624  
1979.000000	99.510385  
1978.000000	99.581991  
1977.000000	99.634914  
1976.000000	99.619681  
1975.000000	99.555350  
1974.000000	99.485323  
1973.000000	99.422816  
1972.000000	99.363917  
1971.000000	99.315778  
1970.000000	99.285510  
1969.000000	99.270517  
1968.000000	99.281491  
1967.000000	99.343873  
1966.000000	99.450112  
1965.000000	99.542085  
1964.000000	99.571469  
1963.000000	99.553280  
1962.000000	99.539752  
1961.000000	99.560456  
1960.000000	99.602779  
1959.000000	99.635702  
1958.000000	99.637531  
1957.000000	99.613924  
1956.000000	99.595815  
1955.000000	99.603070  
1954.000000	99.610320  
1953.000000	99.576615  
1952.000000	99.513479  
1951.000000	99.487298  
1950.000000	99.539813  
1949.000000	99.636854  
1948.000000	99.714246  
1947.000000	99.747068  
1946.000000	99.751511  
1945.000000	99.745091  
1944.000000	99.733328  
1943.000000	99.718760  
1942.000000	99.697244  
1941.000000	99.655800  
1940.000000	99.592935  
1939.000000	99.530610  
1938.000000	99.495181  
1937.000000	99.495218  
1936.000000	99.522665  
1935.000000	99.561133  
1934.000000	99.585967  
1933.000000	99.577938  
1932.000000	99.548922  
1931.000000	99.531907  
1930.000000	99.534528  
1929.000000	99.526478  
1928.000000	99.487640  
1927.000000	99.443313  
1926.000000	99.431481  
1925.000000	99.456270  
1924.000000	99.494581  
1923.000000	99.531700  
1922.000000	99.566997  
1921.000000	99.595464  
1920.000000	99.608951  
1919.000000	99.610090  
1918.000000	99.607680  
1917.000000	99.605027  
1916.000000	99.607144  
1915.000000	99.627517  
1914.000000	99.671599  
1913.000000	99.721067  
1912.000000	99.747979  
1911.000000	99.739765  
1910.000000	99.701771  
1909.000000	99.648970  
1908.000000	99.605512  
1907.000000	99.596219  
1906.000000	99.622239  
1905.000000	99.653093  
1904.000000	99.658059  
1903.000000	99.638713  
1902.000000	99.618320  
1901.000000	99.610096  
1900.000000	99.610105  
1899.000000	99.611361  
1898.000000	99.608454  
1897.000000	99.596395  
1896.000000	99.581066  
1895.000000	99.583192  
1894.000000	99.615756  
1893.000000	99.664347  
1892.000000	99.703111  
1891.000000	99.719818  
1890.000000	99.716321  
1889.000000	99.698393  
1888.000000	99.675885  
1887.000000	99.661305  
1886.000000	99.656647  
1885.000000	99.647960  
1884.000000	99.623841  
1883.000000	99.593116  
1882.000000	99.570890  
1881.000000	99.556651  
1880.000000	99.541408  
1879.000000	99.528468  
1878.000000	99.530336  
1877.000000	99.548163  
1876.000000	99.568116  
1875.000000	99.575885  
1874.000000	99.565459  
1873.000000	99.540735  
1872.000000	99.517656  
1871.000000	99.516656  
1870.000000	99.540121  
1869.000000	99.562611  
1868.000000	99.565252  
1867.000000	99.566409  
1866.000000	99.589739  
1865.000000	99.625668  
1864.000000	99.642938  
1863.000000	99.625958  
1862.000000	99.589351  
1861.000000	99.557795  
1860.000000	99.542181  
1859.000000	99.537018  
1858.000000	99.531836  
1857.000000	99.522650  
1856.000000	99.517049  
1855.000000	99.525573  
1854.000000	99.545093  
1853.000000	99.558405  
1852.000000	99.556364  
1851.000000	99.550450  
1850.000000	99.555619  
1849.000000	99.570863  
1848.000000	99.587199  
1847.000000	99.604416  
1846.000000	99.625709  
1845.000000	99.642744  
1844.000000	99.642551  
1843.000000	99.627704  
1842.000000	99.610622  
1841.000000	99.595667  
1840.000000	99.582173  
1839.000000	99.573184  
1838.000000	99.569275  
1837.000000	99.561026  
1836.000000	99.540134  
1835.000000	99.511423  
1834.000000	99.485325  
1833.000000	99.466324  
1832.000000	99.455307  
1831.000000	99.454368  
1830.000000	99.459896  
1829.000000	99.460374  
1828.000000	99.449935  
1827.000000	99.430092  
1826.000000	99.398242  
1825.000000	99.351580  
1824.000000	99.308580  
1823.000000	99.301070  
1822.000000	99.334354  
1821.000000	99.378168  
1820.000000	99.402223  
1819.000000	99.405599  
1818.000000	99.399508  
1817.000000	99.380844  
1816.000000	99.345768  
1815.000000	99.310254  
1814.000000	99.293416  
1813.000000	99.293019  
1812.000000	99.294054  
1811.000000	99.291839  
1810.000000	99.288084  
1809.000000	99.275103  
1808.000000	99.246120  
1807.000000	99.209953  
1806.000000	99.177393  
1805.000000	99.146002  
1804.000000	99.114306  
1803.000000	99.096616  
1802.000000	99.102346  
1801.000000	99.109986  
1800.000000	99.090235  
1799.000000	99.046776  
1798.000000	99.002009  
1797.000000	98.959298  
1796.000000	98.907017  
1795.000000	98.846306  
1794.000000	98.790442  
1793.000000	98.739163  
1792.000000	98.677728  
1791.000000	98.608003  
1790.000000	98.547593  
1789.000000	98.501594  
1788.000000	98.463995  
1787.000000	98.431647  
1786.000000	98.401024  
1785.000000	98.361224  
1784.000000	98.306130  
1783.000000	98.244727  
1782.000000	98.182499  
1781.000000	98.106472  
1780.000000	98.007781  
1779.000000	97.903781  
1778.000000	97.813321  
1777.000000	97.729833  
1776.000000	97.636545  
1775.000000	97.529260  
1774.000000	97.404943  
1773.000000	97.244854  
1772.000000	97.047487  
1771.000000	96.847056  
1770.000000	96.649743  
1769.000000	96.412315  
1768.000000	96.114382  
1767.000000	95.800563  
1766.000000	95.514814  
1765.000000	95.230702  
1764.000000	94.882932  
1763.000000	94.436365  
1762.000000	93.908399  
1761.000000	93.332887  
1760.000000	92.717821  
1759.000000	92.028526  
1758.000000	91.181779  
1757.000000	90.100558  
1756.000000	88.823777  
1755.000000	87.452391  
1754.000000	85.937355  
1753.000000	84.033543  
1752.000000	81.518331  
1751.000000	78.475010  
1750.000000	75.213553  
1749.000000	71.929535  
1748.000000	68.720381  
1747.000000	65.739499  
1746.000000	63.097536  
1745.000000	60.818445  
1744.000000	58.995821  
1743.000000	57.821202  
1742.000000	57.427172  
1741.000000	57.870026  
1740.000000	59.172157  
1739.000000	61.130717  
1738.000000	63.335713  
1737.000000	65.623188  
1736.000000	68.270802  
1735.000000	71.651582  
1734.000000	75.409483  
1733.000000	78.584054  
1732.000000	80.927072  
1731.000000	82.824314  
1730.000000	84.520561  
1729.000000	86.034495  
1728.000000	87.331538  
1727.000000	88.425209  
1726.000000	89.364769  
1725.000000	90.211544  
1724.000000	90.999246  
1723.000000	91.698696  
1722.000000	92.267921  
1721.000000	92.731714  
1720.000000	93.169491  
1719.000000	93.633252  
1718.000000	94.094002  
1717.000000	94.499509  
1716.000000	94.851034  
1715.000000	95.154814  
1714.000000	95.397320  
1713.000000	95.592226  
1712.000000	95.773316  
1711.000000	95.946365  
1710.000000	96.087403  
1709.000000	96.191245  
1708.000000	96.285243  
1707.000000	96.384996  
1706.000000	96.471524  
1705.000000	96.531354  
1704.000000	96.579695  
1703.000000	96.629457  
1702.000000	96.682075  
1701.000000	96.757886  
1700.000000	96.874096  
1699.000000	97.000193  
1698.000000	97.114709  
1697.000000	97.232781  
1696.000000	97.371441  
1695.000000	97.514109  
1694.000000	97.623758  
1693.000000	97.704274  
1692.000000	97.782097  
1691.000000	97.858932  
1690.000000	97.922143  
1689.000000	97.973231  
1688.000000	98.029506  
1687.000000	98.100003  
1686.000000	98.179082  
1685.000000	98.260979  
1684.000000	98.340585  
1683.000000	98.401179  
1682.000000	98.426907  
1681.000000	98.432403  
1680.000000	98.449308  
1679.000000	98.480553  
1678.000000	98.508742  
1677.000000	98.525977  
1676.000000	98.541018  
1675.000000	98.558526  
1674.000000	98.570359  
1673.000000	98.575813  
1672.000000	98.580524  
1671.000000	98.582425  
1670.000000	98.579996  
1669.000000	98.584130  
1668.000000	98.602392  
1667.000000	98.624000  
1666.000000	98.636143  
1665.000000	98.635590  
1664.000000	98.620937  
1663.000000	98.583870  
1662.000000	98.521420  
1661.000000	98.452137  
1660.000000	98.397045  
1659.000000	98.359288  
1658.000000	98.330766  
1657.000000	98.310558  
1656.000000	98.306612  
1655.000000	98.323612  
1654.000000	98.346424  
1653.000000	98.360829  
1652.000000	98.380778  
1651.000000	98.402835  
1650.000000	98.416280  
1649.000000	98.425256  
1648.000000	98.448140  
1647.000000	98.508981  
1646.000000	98.585305  
1645.000000	98.641003  
1644.000000	98.678103  
1643.000000	98.718681  
1642.000000	98.767997  
1641.000000	98.820074  
1640.000000	98.869395  
1639.000000	98.906198  
1638.000000	98.922060  
1637.000000	98.925698  
1636.000000	98.943141  
1635.000000	98.980152  
1634.000000	99.008850  
1633.000000	99.021439  
1632.000000	99.039447  
1631.000000	99.067475  
1630.000000	99.090926  
1629.000000	99.098895  
1628.000000	99.095978  
1627.000000	99.092906  
1626.000000	99.093630  
1625.000000	99.101488  
1624.000000	99.122289  
1623.000000	99.148063  
1622.000000	99.158961  
1621.000000	99.151906  
1620.000000	99.143726  
1619.000000	99.147605  
1618.000000	99.160688  
1617.000000	99.175811  
1616.000000	99.195577  
1615.000000	99.217159  
1614.000000	99.224970  
1613.000000	99.214370  
1612.000000	99.197697  
1611.000000	99.186639  
1610.000000	99.179064  
1609.000000	99.167929  
1608.000000	99.156246  
1607.000000	99.151016  
1606.000000	99.151407  
1605.000000	99.153047  
1604.000000	99.155738  
1603.000000	99.159065  
1602.000000	99.158026  
1601.000000	99.150443  
1600.000000	99.141824  
1599.000000	99.137241  
1598.000000	99.135182  
1597.000000	99.134078  
1596.000000	99.137661  
1595.000000	99.147366  
1594.000000	99.155647  
1593.000000	99.153974  
1592.000000	99.142364  
1591.000000	99.126331  
1590.000000	99.110643  
1589.000000	99.099311  
1588.000000	99.094434  
1587.000000	99.091006  
1586.000000	99.079292  
1585.000000	99.056608  
1584.000000	99.030722  
1583.000000	99.009214  
1582.000000	98.992834  
1581.000000	98.981487  
1580.000000	98.979018  
1579.000000	98.988101  
1578.000000	99.004962  
1577.000000	99.018830  
1576.000000	99.020013  
1575.000000	99.009272  
1574.000000	98.993996  
1573.000000	98.987150  
1572.000000	99.002175  
1571.000000	99.036004  
1570.000000	99.064510  
1569.000000	99.070641  
1568.000000	99.063108  
1567.000000	99.053416  
1566.000000	99.047522  
1565.000000	99.055192  
1564.000000	99.085051  
1563.000000	99.130664  
1562.000000	99.174847  
1561.000000	99.203936  
1560.000000	99.213114  
1559.000000	99.199588  
1558.000000	99.187211  
1557.000000	99.181766  
1556.000000	99.174973  
1555.000000	99.182711  
1554.000000	99.189582  
1553.000000	99.189005  
1552.000000	99.196665  
1551.000000	99.215814  
1550.000000	99.227943  
1549.000000	99.220207  
1548.000000	99.205027  
1547.000000	99.196732  
1546.000000	99.191389  
1545.000000	99.177263  
1544.000000	99.156721  
1543.000000	99.138397  
1542.000000	99.116047  
1541.000000	99.086476  
1540.000000	99.075261  
1539.000000	99.091887  
1538.000000	99.096141  
1537.000000	99.074036  
1536.000000	99.050790  
1535.000000	99.039960  
1534.000000	99.043896  
1533.000000	99.056091  
1532.000000	99.068850  
1531.000000	99.072818  
1530.000000	99.060284  
1529.000000	99.036632  
1528.000000	99.018044  
1527.000000	99.012363  
1526.000000	99.005792  
1525.000000	98.988170  
1524.000000	98.971632  
1523.000000	98.966029  
1522.000000	98.956114  
1521.000000	98.934182  
1520.000000	98.922645  
1519.000000	98.931279  
1518.000000	98.941703  
1517.000000	98.934592  
1516.000000	98.913598  
1515.000000	98.889968  
1514.000000	98.859464  
1513.000000	98.822826  
1512.000000	98.798636  
1511.000000	98.800219  
1510.000000	98.815947  
1509.000000	98.823590  
1508.000000	98.817232  
1507.000000	98.799327  
1506.000000	98.764822  
1505.000000	98.703750  
1504.000000	98.641136  
1503.000000	98.606534  
1502.000000	98.575424  
1501.000000	98.528803  
1500.000000	98.486891  
1499.000000	98.473391  
1498.000000	98.475341  
1497.000000	98.457599  
1496.000000	98.419104  
1495.000000	98.378792  
1494.000000	98.328642  
1493.000000	98.256929  
1492.000000	98.178290  
1491.000000	98.108832  
1490.000000	98.035975  
1489.000000	97.950815  
1488.000000	97.872356  
1487.000000	97.802137  
1486.000000	97.712772  
1485.000000	97.594717  
1484.000000	97.469356  
1483.000000	97.344264  
1482.000000	97.189892  
1481.000000	96.991304  
1480.000000	96.782991  
1479.000000	96.591134  
1478.000000	96.383742  
1477.000000	96.117661  
1476.000000	95.791282  
1475.000000	95.382144  
1474.000000	94.749488  
1473.000000	93.728248  
1472.000000	92.390906  
1471.000000	90.986850  
1470.000000	89.649726  
1469.000000	88.425784  
1468.000000	87.396816  
1467.000000	86.635349  
1466.000000	86.137739  
1465.000000	85.848794  
1464.000000	85.719353  
1463.000000	85.691394  
1462.000000	85.695656  
1461.000000	85.696750  
1460.000000	85.700138  
1459.000000	85.720100  
1458.000000	85.764367  
1457.000000	85.888719  
1456.000000	86.161082  
1455.000000	86.543666  
1454.000000	86.959955  
1453.000000	87.370712  
1452.000000	87.745966  
1451.000000	88.047209  
1450.000000	88.238348  
1449.000000	88.320117  
1448.000000	88.327997  
1447.000000	88.287785  
1446.000000	88.194024  
1445.000000	88.038097  
1444.000000	87.818715  
1443.000000	87.512763  
1442.000000	87.077255  
1441.000000	86.510373  
1440.000000	85.854345  
1439.000000	85.120049  
1438.000000	84.278506  
1437.000000	83.460962  
1436.000000	83.049018  
1435.000000	83.271618  
1434.000000	84.015960  
1433.000000	85.120723  
1432.000000	86.479375  
1431.000000	87.949436  
1430.000000	89.350743  
1429.000000	90.541504  
1428.000000	91.459778  
1427.000000	92.123690  
1426.000000	92.605988  
1425.000000	92.965109  
1424.000000	93.209705  
1423.000000	93.347314  
1422.000000	93.428153  
1421.000000	93.515066  
1420.000000	93.646007  
1419.000000	93.831782  
1418.000000	94.071873  
1417.000000	94.357586  
1416.000000	94.667759  
1415.000000	94.981443  
1414.000000	95.289343  
1413.000000	95.586832  
1412.000000	95.858213  
1411.000000	96.080499  
1410.000000	96.243079  
1409.000000	96.345367  
1408.000000	96.383080  
1407.000000	96.359526  
1406.000000	96.302036  
1405.000000	96.242179  
1404.000000	96.186200  
1403.000000	96.129733  
1402.000000	96.085601  
1401.000000	96.071352  
1400.000000	96.083538  
1399.000000	96.105655  
1398.000000	96.136636  
1397.000000	96.188920  
1396.000000	96.264203  
1395.000000	96.351019  
1394.000000	96.438825  
1393.000000	96.519739  
1392.000000	96.582592  
1391.000000	96.618137  
1390.000000	96.625286  
1389.000000	96.601488  
1388.000000	96.528958  
1387.000000	96.390046  
1386.000000	96.189852  
1385.000000	95.933518  
1384.000000	95.600725  
1383.000000	95.170424  
1382.000000	94.657650  
1381.000000	94.112867  
1380.000000	93.599741  
1379.000000	93.186184  
1378.000000	92.924258  
1377.000000	92.814024  
1376.000000	92.804058  
1375.000000	92.829780  
1374.000000	92.842789  
1373.000000	92.814955  
1372.000000	92.734848  
1371.000000	92.607501  
1370.000000	92.447357  
1369.000000	92.266551  
1368.000000	92.074469  
1367.000000	91.885031  
1366.000000	91.714139  
1365.000000	91.569159  
1364.000000	91.450713  
1363.000000	91.368474  
1362.000000	91.340555  
1361.000000	91.368317  
1360.000000	91.431348  
1359.000000	91.511288  
1358.000000	91.603610  
1357.000000	91.708846  
1356.000000	91.823746  
1355.000000	91.943463  
1354.000000	92.065895  
1353.000000	92.188565  
1352.000000	92.307688  
1351.000000	92.426741  
1350.000000	92.560301  
1349.000000	92.720205  
1348.000000	92.900349  
1347.000000	93.082569  
1346.000000	93.254360  
1345.000000	93.413832  
1344.000000	93.561652  
1343.000000	93.698301  
1342.000000	93.827941  
1341.000000	93.955101  
1340.000000	94.075098  
1339.000000	94.176048  
1338.000000	94.253760  
1337.000000	94.316062  
1336.000000	94.369578  
1335.000000	94.409957  
1334.000000	94.427639  
1333.000000	94.417387  
1332.000000	94.380005  
1331.000000	94.319572  
1330.000000	94.240591  
1329.000000	94.144206  
1328.000000	94.027132  
1327.000000	93.887745  
1326.000000	93.733133  
1325.000000	93.577522  
1324.000000	93.434703  
1323.000000	93.314034  
1322.000000	93.221311  
1321.000000	93.159497  
1320.000000	93.127706  
1319.000000	93.120343  
1318.000000	93.128099  
1317.000000	93.141571  
1316.000000	93.155924  
1315.000000	93.171962  
1314.000000	93.191149  
1313.000000	93.209926  
1312.000000	93.221999  
1311.000000	93.226650  
1310.000000	93.229364  
1309.000000	93.230733  
1308.000000	93.219509  
1307.000000	93.183108  
1306.000000	93.124008  
1305.000000	93.060336  
1304.000000	93.010651  
1303.000000	92.982332  
1302.000000	92.973179  
1301.000000	92.978167  
1300.000000	92.992514  
1299.000000	93.011759  
1298.000000	93.031770  
1297.000000	93.047981  
1296.000000	93.054750  
1295.000000	93.048135  
1294.000000	93.029927  
1293.000000	93.006226  
1292.000000	92.980610  
1291.000000	92.949364  
1290.000000	92.902412  
1289.000000	92.827061  
1288.000000	92.712994  
1287.000000	92.558725  
1286.000000	92.374466  
1285.000000	92.176304  
1284.000000	91.977678  
1283.000000	91.787586  
1282.000000	91.613942  
1281.000000	91.463578  
1280.000000	91.337667  
1279.000000	91.230307  
1278.000000	91.134500  
1277.000000	91.048030  
1276.000000	90.970573  
1275.000000	90.896579  
1274.000000	90.815719  
1273.000000	90.720982  
1272.000000	90.612385  
1271.000000	90.491905  
1270.000000	90.359401  
1269.000000	90.215863  
1268.000000	90.066077  
1267.000000	89.913730  
1266.000000	89.756704  
1265.000000	89.591106  
1264.000000	89.416578  
1263.000000	89.232812  
1262.000000	89.034798  
1261.000000	88.819046  
1260.000000	88.592665  
1259.000000	88.367662  
1258.000000	88.145671  
1257.000000	87.915793  
1256.000000	87.668011  
1255.000000	87.401905  
1254.000000	87.122448  
1253.000000	86.835408  
1252.000000	86.548686  
1251.000000	86.271072  
1250.000000	86.008137  
1249.000000	85.766241  
1248.000000	85.560312  
1247.000000	85.408273  
1246.000000	85.316676  
1245.000000	85.279990  
1244.000000	85.292357  
1243.000000	85.349406  
1242.000000	85.440783  
1241.000000	85.554573  
1240.000000	85.689493  
1239.000000	85.850063  
1238.000000	86.028865  
1237.000000	86.206492  
1236.000000	86.371615  
1235.000000	86.529024  
1234.000000	86.683947  
1233.000000	86.829638  
1232.000000	86.956264  
1231.000000	87.062299  
1230.000000	87.149522  
1229.000000	87.213963  
1228.000000	87.250418  
1227.000000	87.261646  
1226.000000	87.254592  
1225.000000	87.228969  
1224.000000	87.176510  
1223.000000	87.091539  
1222.000000	86.976976  
1221.000000	86.839399  
1220.000000	86.682694  
1219.000000	86.508139  
1218.000000	86.318309  
1217.000000	86.118819  
1216.000000	85.914514  
1215.000000	85.702304  
1214.000000	85.469985  
1213.000000	85.207042  
1212.000000	84.915928  
1211.000000	84.607116  
1210.000000	84.283538  
1209.000000	83.937160  
1208.000000	83.560556  
1207.000000	83.151955  
1206.000000	82.707975  
1205.000000	82.224634  
1204.000000	81.711541  
1203.000000	81.193668  
1202.000000	80.691065  
1201.000000	80.206874  
1200.000000	79.743551  
1199.000000	79.321186  
1198.000000	78.971582  
1197.000000	78.723434  
1196.000000	78.600935  
1195.000000	78.626575  
1194.000000	78.813490  
1193.000000	79.155165  
1192.000000	79.622347  
1191.000000	80.166352  
1190.000000	80.730613  
1189.000000	81.266582  
1188.000000	81.736247  
1187.000000	82.099518  
1186.000000	82.312012  
1185.000000	82.344206  
1184.000000	82.196972  
1183.000000	81.892429  
1182.000000	81.453949  
1181.000000	80.899691  
1180.000000	80.248935  
1179.000000	79.523780  
1178.000000	78.746579  
1177.000000	77.947111  
1176.000000	77.170694  
1175.000000	76.463555  
1174.000000	75.847523  
1173.000000	75.324499  
1172.000000	74.907085  
1171.000000	74.626114  
1170.000000	74.505197  
1169.000000	74.546248  
1168.000000	74.741472  
1167.000000	75.079031  
1166.000000	75.534825  
1165.000000	76.079248  
1164.000000	76.696178  
1163.000000	77.379894  
1162.000000	78.113355  
1161.000000	78.866140  
1160.000000	79.615138  
1159.000000	80.353626  
1158.000000	81.079865  
1157.000000	81.789746  
1156.000000	82.481514  
1155.000000	83.155488  
1154.000000	83.805607  
1153.000000	84.419387  
1152.000000	84.989434  
1151.000000	85.519895  
1150.000000	86.019340  
1149.000000	86.490497  
1148.000000	86.928361  
1147.000000	87.326237  
1146.000000	87.683317  
1145.000000	88.009078  
1144.000000	88.321818  
1143.000000	88.640057  
1142.000000	88.970787  
1141.000000	89.305477  
1140.000000	89.630821  
1139.000000	89.944739  
1138.000000	90.257819  
1137.000000	90.575479  
1136.000000	90.884209  
1135.000000	91.164095  
1134.000000	91.411740  
1133.000000	91.637581  
1132.000000	91.838663  
1131.000000	91.988991  
1130.000000	92.065751  
1129.000000	92.074355  
1128.000000	92.036794  
1127.000000	91.963469  
1126.000000	91.849039  
1125.000000	91.693285  
1124.000000	91.515225  
1123.000000	91.345551  
1122.000000	91.212020  
1121.000000	91.132885  
1120.000000	91.116130  
1119.000000	91.157886  
1118.000000	91.244136  
1117.000000	91.359787  
1116.000000	91.496432  
1115.000000	91.649811  
1114.000000	91.811808  
1113.000000	91.967451  
1112.000000	92.100563  
1111.000000	92.204482  
1110.000000	92.288980  
1109.000000	92.372722  
1108.000000	92.463816  
1107.000000	92.548726  
1106.000000	92.603985  
1105.000000	92.617960  
1104.000000	92.598026  
1103.000000	92.559590  
1102.000000	92.514108  
1101.000000	92.467204  
1100.000000	92.421787  
1099.000000	92.379482  
1098.000000	92.341101  
1097.000000	92.309053  
1096.000000	92.289240  
1095.000000	92.290022  
1094.000000	92.318769  
1093.000000	92.377051  
1092.000000	92.456724  
1091.000000	92.543322  
1090.000000	92.629356  
1089.000000	92.724739  
1088.000000	92.848219  
1087.000000	93.005628  
1086.000000	93.179750  
1085.000000	93.344169  
1084.000000	93.485449  
1083.000000	93.611818  
1082.000000	93.743835  
1081.000000	93.897573  
1080.000000	94.073466  
1079.000000	94.258127  
1078.000000	94.436048  
1077.000000	94.598632  
1076.000000	94.741648  
1075.000000	94.858507  
1074.000000	94.942157  
1073.000000	94.993926  
1072.000000	95.026544  
1071.000000	95.056184  
1070.000000	95.090964  
1069.000000	95.126729  
1068.000000	95.153504  
1067.000000	95.165206  
1066.000000	95.162515  
1065.000000	95.148627  
1064.000000	95.127719  
1063.000000	95.109387  
1062.000000	95.107484  
1061.000000	95.126853  
1060.000000	95.154018  
1059.000000	95.169121  
1058.000000	95.167787  
1057.000000	95.164855  
1056.000000	95.175939  
1055.000000	95.201549  
1054.000000	95.229747  
1053.000000	95.247647  
1052.000000	95.248654  
1051.000000	95.236208  
1050.000000	95.223816  
1049.000000	95.223004  
1048.000000	95.227492  
1047.000000	95.217734  
1046.000000	95.184083  
1045.000000	95.136563  
1044.000000	95.088501  
1043.000000	95.039232  
1042.000000	94.979416  
1041.000000	94.908470  
1040.000000	94.838285  
1039.000000	94.780069  
1038.000000	94.733457  
1037.000000	94.688646  
1036.000000	94.633201  
1035.000000	94.555908  
1034.000000	94.451073  
1033.000000	94.324430  
1032.000000	94.193094  
1031.000000	94.075171  
1030.000000	93.976777  
1029.000000	93.888340  
1028.000000	93.792265  
1027.000000	93.673886  
1026.000000	93.528046  
1025.000000	93.359630  
1024.000000	93.180413  
1023.000000	93.004660  
1022.000000	92.844992  
1021.000000	92.710131  
1020.000000	92.605022  
1019.000000	92.531418  
1018.000000	92.487922  
1017.000000	92.471185  
1016.000000	92.478850  
1015.000000	92.511894  
1014.000000	92.573434  
1013.000000	92.663852  
1012.000000	92.776364  
1011.000000	92.898934  
1010.000000	93.023257  
1009.000000	93.151507  
1008.000000	93.291222  
1007.000000	93.442965  
1006.000000	93.595593  
1005.000000	93.735353  
1004.000000	93.858345  
1003.000000	93.972194  
1002.000000	94.084643  
1001.000000	94.190967  
1000.000000	94.275377  
999.000000	 94.327607  
998.000000	 94.356421  
997.000000	 94.381939  
996.000000	 94.414574  
995.000000	 94.447024  
994.000000	 94.468936  
993.000000	 94.483768  
992.000000	 94.506385  
991.000000	 94.547220  
990.000000	 94.603713  
989.000000	 94.666031  
988.000000	 94.727365  
987.000000	 94.789451  
986.000000	 94.861158  
985.000000	 94.951026  
984.000000	 95.058904  
983.000000	 95.175890  
982.000000	 95.293903  
981.000000	 95.412183  
980.000000	 95.531521  
979.000000	 95.646086  
978.000000	 95.746164  
977.000000	 95.827202  
976.000000	 95.892384  
975.000000	 95.949163  
974.000000	 96.007559  
973.000000	 96.077956  
972.000000	 96.162902  
971.000000	 96.251230  
970.000000	 96.326599  
969.000000	 96.383127  
968.000000	 96.428656  
967.000000	 96.474048  
966.000000	 96.525677  
965.000000	 96.588135  
964.000000	 96.665172  
963.000000	 96.752624  
962.000000	 96.836095  
961.000000	 96.902572  
960.000000	 96.952413  
959.000000	 96.994957  
958.000000	 97.034505  
957.000000	 97.067448  
956.000000	 97.093660  
955.000000	 97.122589  
954.000000	 97.162334  
953.000000	 97.207418  
952.000000	 97.244984  
951.000000	 97.271540  
950.000000	 97.295534  
949.000000	 97.322611  
948.000000	 97.347787  
947.000000	 97.366609  
946.000000	 97.384946  
945.000000	 97.408890  
944.000000	 97.430934  
943.000000	 97.437404  
942.000000	 97.427892  
941.000000	 97.416885  
940.000000	 97.415902  
939.000000	 97.423740  
938.000000	 97.435653  
937.000000	 97.451894  
936.000000	 97.472563  
935.000000	 97.492163  
934.000000	 97.505008  
933.000000	 97.509976  
932.000000	 97.505084  
931.000000	 97.484643  
930.000000	 97.448986  
929.000000	 97.411305  
928.000000	 97.385802  
927.000000	 97.371145  
926.000000	 97.353134  
925.000000	 97.321893  
924.000000	 97.277519  
923.000000	 97.218254  
922.000000	 97.133728  
921.000000	 97.017685  
920.000000	 96.883683  
919.000000	 96.760088  
918.000000	 96.667291  
917.000000	 96.604167  
916.000000	 96.558814  
915.000000	 96.526604  
914.000000	 96.511258  
913.000000	 96.511182  
912.000000	 96.515854  
911.000000	 96.521564  
910.000000	 96.543249  
909.000000	 96.599602  
908.000000	 96.686582  
907.000000	 96.775047  
906.000000	 96.838105  
905.000000	 96.874626  
904.000000	 96.902439  
903.000000	 96.934750  
902.000000	 96.967683  
901.000000	 96.984995  
900.000000	 96.969061  
899.000000	 96.912306  
898.000000	 96.826604  
897.000000	 96.740724  
896.000000	 96.680323  
895.000000	 96.645159  
894.000000	 96.606102  
893.000000	 96.526692  
892.000000	 96.390088  
891.000000	 96.209317  
890.000000	 96.015400  
889.000000	 95.835693  
888.000000	 95.680618  
887.000000	 95.546182  
886.000000	 95.424950  
885.000000	 95.314216  
884.000000	 95.217173  
883.000000	 95.139599  
882.000000	 95.085389  
881.000000	 95.053843  
880.000000	 95.042142  
879.000000	 95.051726  
878.000000	 95.089086  
877.000000	 95.155058  
876.000000	 95.234480  
875.000000	 95.303000  
874.000000	 95.345915  
873.000000	 95.364779  
872.000000	 95.365010  
871.000000	 95.346587  
870.000000	 95.311639  
869.000000	 95.272908  
868.000000	 95.247344  
867.000000	 95.244798  
866.000000	 95.265764  
865.000000	 95.303191  
864.000000	 95.340670  
863.000000	 95.356457  
862.000000	 95.340431  
861.000000	 95.304463  
860.000000	 95.266566  
859.000000	 95.227488  
858.000000	 95.174279  
857.000000	 95.107221  
856.000000	 95.050331  
855.000000	 95.028947  
854.000000	 95.044711  
853.000000	 95.078103  
852.000000	 95.107852  
851.000000	 95.120452  
850.000000	 95.107837  
849.000000	 95.067756  
848.000000	 95.007969  
847.000000	 94.944356  
846.000000	 94.892531  
845.000000	 94.861901  
844.000000	 94.854752  
843.000000	 94.867390  
842.000000	 94.895053  
841.000000	 94.940856  
840.000000	 95.017927  
839.000000	 95.136070  
838.000000	 95.284979  
837.000000	 95.434404  
836.000000	 95.552419  
835.000000	 95.624192  
834.000000	 95.658131  
833.000000	 95.680066  
832.000000	 95.721156  
831.000000	 95.803724  
830.000000	 95.930421  
829.000000	 96.083332  
828.000000	 96.234027  
827.000000	 96.359348  
826.000000	 96.456329  
825.000000	 96.545558  
824.000000	 96.652128  
823.000000	 96.775136  
822.000000	 96.881978  
821.000000	 96.942108  
820.000000	 96.961337  
819.000000	 96.975094  
818.000000	 97.010289  
817.000000	 97.059001  
816.000000	 97.090261  
815.000000	 97.084632  
814.000000	 97.055086  
813.000000	 97.035043  
812.000000	 97.049040  
811.000000	 97.094456  
810.000000	 97.146231  
809.000000	 97.176900  
808.000000	 97.176252  
807.000000	 97.156731  
806.000000	 97.140400  
805.000000	 97.139520  
804.000000	 97.151122  
803.000000	 97.169754  
802.000000	 97.197806  
801.000000	 97.236177  
800.000000	 97.269559  
799.000000	 97.273739  
798.000000	 97.241477  
797.000000	 97.192522  
796.000000	 97.152820  
795.000000	 97.130123  
794.000000	 97.113908  
793.000000	 97.090375  
792.000000	 97.049164  
791.000000	 96.983475  
790.000000	 96.897832  
789.000000	 96.815115  
788.000000	 96.763555  
787.000000	 96.752477  
786.000000	 96.766392  
785.000000	 96.782463  
784.000000	 96.784710  
783.000000	 96.761517  
782.000000	 96.703868  
781.000000	 96.615053  
780.000000	 96.515211  
779.000000	 96.429163  
778.000000	 96.372069  
777.000000	 96.345087  
776.000000	 96.331839  
775.000000	 96.295242  
774.000000	 96.197526  
773.000000	 96.041970  
772.000000	 95.885786  
771.000000	 95.792630  
770.000000	 95.772684  
769.000000	 95.779956  
768.000000	 95.762099  
767.000000	 95.697716  
766.000000	 95.592657  
765.000000	 95.466169  
764.000000	 95.346675  
763.000000	 95.259627  
762.000000	 95.206914  
761.000000	 95.168307  
760.000000	 95.127613  
759.000000	 95.084532  
758.000000	 95.037471  
757.000000	 94.970773  
756.000000	 94.863046  
755.000000	 94.689820  
754.000000	 94.417329  
753.000000	 94.029214  
752.000000	 93.582943  
751.000000	 93.211686  
750.000000	 93.030270  
749.000000	 93.034847  
748.000000	 93.106476  
747.000000	 93.109399  
746.000000	 92.977387  
745.000000	 92.721453  
744.000000	 92.392870  
743.000000	 92.050665  
742.000000	 91.733584  
741.000000	 91.435312  
740.000000	 91.111695  
739.000000	 90.725577  
738.000000	 90.282061  
737.000000	 89.815607  
736.000000	 89.352012  
735.000000	 88.891006  
734.000000	 88.418593  
733.000000	 87.925560  
732.000000	 87.414660  
731.000000	 86.896531  
730.000000	 86.380287  
729.000000	 85.865302  
728.000000	 85.342222  
727.000000	 84.806377  
726.000000	 84.275171  
725.000000	 83.792636  
724.000000	 83.414174  
723.000000	 83.188802  
722.000000	 83.154766  
721.000000	 83.330845  
720.000000	 83.685740  
719.000000	 84.127641  
718.000000	 84.558063  
717.000000	 84.935373  
716.000000	 85.275646  
715.000000	 85.607596  
714.000000	 85.937693  
713.000000	 86.250527  
712.000000	 86.528105  
711.000000	 86.762687  
710.000000	 86.958109  
709.000000	 87.126604  
708.000000	 87.285213  
707.000000	 87.450795  
706.000000	 87.632650  
705.000000	 87.825394  
704.000000	 88.007308  
703.000000	 88.152011  
702.000000	 88.250623  
701.000000	 88.323922  
700.000000	 88.409428  
699.000000	 88.532165  
698.000000	 88.685750  
697.000000	 88.841735  
696.000000	 88.975819  
695.000000	 89.087909  
694.000000	 89.201473  
693.000000	 89.344997  
692.000000	 89.532157  
691.000000	 89.751312  
690.000000	 89.968420  
689.000000	 90.148739  
688.000000	 90.291513  
687.000000	 90.443347  
686.000000	 90.655415  
685.000000	 90.920453  
684.000000	 91.173243  
683.000000	 91.361855  
682.000000	 91.499934  
681.000000	 91.640099  
680.000000	 91.813791  
679.000000	 92.016460  
678.000000	 92.236643  
677.000000	 92.470894  
676.000000	 92.706725  
675.000000	 92.924278  
674.000000	 93.125207  
673.000000	 93.318088  
672.000000	 93.500466  
671.000000	 93.699386  
670.000000	 93.996526  
669.000000	 94.456197  
668.000000	 94.947256  
667.000000	 95.238651  
666.000000	 95.214383  
665.000000	 94.958759  
664.000000	 94.723532  
663.000000	 94.626143  
662.000000	 94.664715  
661.000000	 94.816331  
660.000000	 95.038073  
659.000000	 95.248026  
658.000000	 95.376203  
657.000000	 95.445721  
656.000000	 95.537684  
655.000000	 95.671975  
654.000000	 95.798365  
653.000000	 95.875202  
652.000000	 95.930380  
651.000000	 95.988126  
650.000000	 96.028253  

