PE IR                   SPECTRUM    ASCII       PEDS        1.60        
  -1
125G~1.ASC
22/04/13
14:56:38.00
22/04/13
14:56:38.00
Admin

650.000000
4









SPECTRUM ONE,CPU32 MAIN 00.02.6000 25-JUNE-2003 12:00:00
MIR TGS
MIR
OPTKBR
68128
0.200000

4.000000
STRONG
RATIO
SPECTRUM
MAGNITUDE
UNIVERSAL ATR
DOUBLE

COMBINED


0


#HDR
-1
-1
#GR
CM-1
%T
0.00002384185791015625
0.0
4000.000000
-1.000000
3351
8
99.144443
56.027856
#DATA
4000.000000	98.644287 
3999.000000	98.630291 
3998.000000	98.631793 
3997.000000	98.642562 
3996.000000	98.657984 
3995.000000	98.673397 
3994.000000	98.690904 
3993.000000	98.713885 
3992.000000	98.746330 
3991.000000	98.783126 
3990.000000	98.808984 
3989.000000	98.812269 
3988.000000	98.800017 
3987.000000	98.793891 
3986.000000	98.807570 
3985.000000	98.830867 
3984.000000	98.839611 
3983.000000	98.821053 
3982.000000	98.786250 
3981.000000	98.756173 
3980.000000	98.738925 
3979.000000	98.723023 
3978.000000	98.693210 
3977.000000	98.650402 
3976.000000	98.614185 
3975.000000	98.605108 
3974.000000	98.625760 
3973.000000	98.659626 
3972.000000	98.685522 
3971.000000	98.692093 
3970.000000	98.681788 
3969.000000	98.666297 
3968.000000	98.658709 
3967.000000	98.666160 
3966.000000	98.687154 
3965.000000	98.715386 
3964.000000	98.746121 
3963.000000	98.777616 
3962.000000	98.806643 
3961.000000	98.826081 
3960.000000	98.829627 
3959.000000	98.818624 
3958.000000	98.802741 
3957.000000	98.792666 
3956.000000	98.790655 
3955.000000	98.786991 
3954.000000	98.766488 
3953.000000	98.720822 
3952.000000	98.657881 
3951.000000	98.601081 
3950.000000	98.577247 
3949.000000	98.599747 
3948.000000	98.659454 
3947.000000	98.731292 
3946.000000	98.789470 
3945.000000	98.818801 
3944.000000	98.819487 
3943.000000	98.805755 
3942.000000	98.795594 
3941.000000	98.797460 
3940.000000	98.805518 
3939.000000	98.807983 
3938.000000	98.799395 
3937.000000	98.784973 
3936.000000	98.773073 
3935.000000	98.765028 
3934.000000	98.755781 
3933.000000	98.743536 
3932.000000	98.733611 
3931.000000	98.730086 
3930.000000	98.729030 
3929.000000	98.726263 
3928.000000	98.727362 
3927.000000	98.743099 
3926.000000	98.773768 
3925.000000	98.804609 
3924.000000	98.820707 
3923.000000	98.820265 
3922.000000	98.809741 
3921.000000	98.794590 
3920.000000	98.779421 
3919.000000	98.771690 
3918.000000	98.778381 
3917.000000	98.800129 
3916.000000	98.831654 
3915.000000	98.865152 
3914.000000	98.889431 
3913.000000	98.892017 
3912.000000	98.867632 
3911.000000	98.826423 
3910.000000	98.789372 
3909.000000	98.773189 
3908.000000	98.778359 
3907.000000	98.788451 
3906.000000	98.782803 
3905.000000	98.756425 
3904.000000	98.730931 
3903.000000	98.737938 
3902.000000	98.787399 
3901.000000	98.856560 
3900.000000	98.909928 
3899.000000	98.927786 
3898.000000	98.912202 
3897.000000	98.872698 
3896.000000	98.816685 
3895.000000	98.755929 
3894.000000	98.710948 
3893.000000	98.699925 
3892.000000	98.717608 
3891.000000	98.738122 
3890.000000	98.747655 
3889.000000	98.756019 
3888.000000	98.774561 
3887.000000	98.797132 
3886.000000	98.807336 
3885.000000	98.804051 
3884.000000	98.805681 
3883.000000	98.822863 
3882.000000	98.842092 
3881.000000	98.841468 
3880.000000	98.816845 
3879.000000	98.788001 
3878.000000	98.776473 
3877.000000	98.784628 
3876.000000	98.797864 
3875.000000	98.801557 
3874.000000	98.797451 
3873.000000	98.799229 
3872.000000	98.807689 
3871.000000	98.800432 
3870.000000	98.760612 
3869.000000	98.709879 
3868.000000	98.687763 
3867.000000	98.705097 
3866.000000	98.739084 
3865.000000	98.767318 
3864.000000	98.789037 
3863.000000	98.810990 
3862.000000	98.828252 
3861.000000	98.833944 
3860.000000	98.831463 
3859.000000	98.828810 
3858.000000	98.829485 
3857.000000	98.832176 
3856.000000	98.837394 
3855.000000	98.847917 
3854.000000	98.864228 
3853.000000	98.885738 
3852.000000	98.912851 
3851.000000	98.937022 
3850.000000	98.939088 
3849.000000	98.911072 
3848.000000	98.869462 
3847.000000	98.842170 
3846.000000	98.842088 
3845.000000	98.858677 
3844.000000	98.873525 
3843.000000	98.881960 
3842.000000	98.892947 
3841.000000	98.907214 
3840.000000	98.905704 
3839.000000	98.872836 
3838.000000	98.826639 
3837.000000	98.805890 
3836.000000	98.831405 
3835.000000	98.889786 
3834.000000	98.948108 
3833.000000	98.975201 
3832.000000	98.958778 
3831.000000	98.913354 
3830.000000	98.868538 
3829.000000	98.845560 
3828.000000	98.841745 
3827.000000	98.837820 
3826.000000	98.824494 
3825.000000	98.818376 
3824.000000	98.841663 
3823.000000	98.888524 
3822.000000	98.918736 
3821.000000	98.902900 
3820.000000	98.870218 
3819.000000	98.873657 
3818.000000	98.923607 
3817.000000	98.974241 
3816.000000	98.973862 
3815.000000	98.928104 
3814.000000	98.884054 
3813.000000	98.866028 
3812.000000	98.862987 
3811.000000	98.860888 
3810.000000	98.862101 
3809.000000	98.874414 
3808.000000	98.891464 
3807.000000	98.898734 
3806.000000	98.899741 
3805.000000	98.915486 
3804.000000	98.951532 
3803.000000	98.983202 
3802.000000	98.975837 
3801.000000	98.926181 
3800.000000	98.868319 
3799.000000	98.825866 
3798.000000	98.789892 
3797.000000	98.746279 
3796.000000	98.704067 
3795.000000	98.687042 
3794.000000	98.703137 
3793.000000	98.734335 
3792.000000	98.756271 
3791.000000	98.761719 
3790.000000	98.762105 
3789.000000	98.771506 
3788.000000	98.793270 
3787.000000	98.818608 
3786.000000	98.833012 
3785.000000	98.827433 
3784.000000	98.808718 
3783.000000	98.798804 
3782.000000	98.817866 
3781.000000	98.866241 
3780.000000	98.920961 
3779.000000	98.953926 
3778.000000	98.954415 
3777.000000	98.929401 
3776.000000	98.887025 
3775.000000	98.831785 
3774.000000	98.773945 
3773.000000	98.732079 
3772.000000	98.720089 
3771.000000	98.735144 
3770.000000	98.763158 
3769.000000	98.795117 
3768.000000	98.829997 
3767.000000	98.862229 
3766.000000	98.879768 
3765.000000	98.878580 
3764.000000	98.870805 
3763.000000	98.870176 
3762.000000	98.873442 
3761.000000	98.868169 
3760.000000	98.856002 
3759.000000	98.855427 
3758.000000	98.877992 
3757.000000	98.916115 
3756.000000	98.955680 
3755.000000	98.984710 
3754.000000	98.994276 
3753.000000	98.986240 
3752.000000	98.980020 
3751.000000	98.987355 
3750.000000	98.982647 
3749.000000	98.939035 
3748.000000	98.874081 
3747.000000	98.828152 
3746.000000	98.816479 
3745.000000	98.805183 
3744.000000	98.759922 
3743.000000	98.708381 
3742.000000	98.694338 
3741.000000	98.717671 
3740.000000	98.750522 
3739.000000	98.769546 
3738.000000	98.766890 
3737.000000	98.747736 
3736.000000	98.735088 
3735.000000	98.759462 
3734.000000	98.824177 
3733.000000	98.890192 
3732.000000	98.910308 
3731.000000	98.873056 
3730.000000	98.803564 
3729.000000	98.732604 
3728.000000	98.677938 
3727.000000	98.648828 
3726.000000	98.656196 
3725.000000	98.706801 
3724.000000	98.787958 
3723.000000	98.868712 
3722.000000	98.918722 
3721.000000	98.928892 
3720.000000	98.913086 
3719.000000	98.892609 
3718.000000	98.880315 
3717.000000	98.878797 
3716.000000	98.887915 
3715.000000	98.903847 
3714.000000	98.914541 
3713.000000	98.904236 
3712.000000	98.867808 
3711.000000	98.816961 
3710.000000	98.768663 
3709.000000	98.733298 
3708.000000	98.714770 
3707.000000	98.715254 
3706.000000	98.735490 
3705.000000	98.770458 
3704.000000	98.806477 
3703.000000	98.828549 
3702.000000	98.831278 
3701.000000	98.821996 
3700.000000	98.812450 
3699.000000	98.809114 
3698.000000	98.810203 
3697.000000	98.811397 
3696.000000	98.812688 
3695.000000	98.815026 
3694.000000	98.814117 
3693.000000	98.806336 
3692.000000	98.802201 
3691.000000	98.823667 
3690.000000	98.877425 
3689.000000	98.936375 
3688.000000	98.968368 
3687.000000	98.972123 
3686.000000	98.964208 
3685.000000	98.950154 
3684.000000	98.924134 
3683.000000	98.885666 
3682.000000	98.845445 
3681.000000	98.814449 
3680.000000	98.797952 
3679.000000	98.801433 
3678.000000	98.827155 
3677.000000	98.859313 
3676.000000	98.870092 
3675.000000	98.859483 
3674.000000	98.860056 
3673.000000	98.888044 
3672.000000	98.917403 
3671.000000	98.914657 
3670.000000	98.889882 
3669.000000	98.887399 
3668.000000	98.921273 
3667.000000	98.957884 
3666.000000	98.958237 
3665.000000	98.916263 
3664.000000	98.860054 
3663.000000	98.821609 
3662.000000	98.808979 
3661.000000	98.807794 
3660.000000	98.804187 
3659.000000	98.795363 
3658.000000	98.782563 
3657.000000	98.764192 
3656.000000	98.743629 
3655.000000	98.736864 
3654.000000	98.756924 
3653.000000	98.794118 
3652.000000	98.818361 
3651.000000	98.809277 
3650.000000	98.786678 
3649.000000	98.788049 
3648.000000	98.814666 
3647.000000	98.836712 
3646.000000	98.837245 
3645.000000	98.823577 
3644.000000	98.809950 
3643.000000	98.803394 
3642.000000	98.802998 
3641.000000	98.804502 
3640.000000	98.801700 
3639.000000	98.786764 
3638.000000	98.757252 
3637.000000	98.720473 
3636.000000	98.685572 
3635.000000	98.654419 
3634.000000	98.629141 
3633.000000	98.626914 
3632.000000	98.672258 
3631.000000	98.765868 
3630.000000	98.859231 
3629.000000	98.886828 
3628.000000	98.844697 
3627.000000	98.787360 
3626.000000	98.750717 
3625.000000	98.730075 
3624.000000	98.711622 
3623.000000	98.694995 
3622.000000	98.687489 
3621.000000	98.688341 
3620.000000	98.689438 
3619.000000	98.689134 
3618.000000	98.694637 
3617.000000	98.709389 
3616.000000	98.724746 
3615.000000	98.725846 
3614.000000	98.707537 
3613.000000	98.683735 
3612.000000	98.677281 
3611.000000	98.699191 
3610.000000	98.739209 
3609.000000	98.776657 
3608.000000	98.800721 
3607.000000	98.817834 
3606.000000	98.838348 
3605.000000	98.861813 
3604.000000	98.876147 
3603.000000	98.867404 
3602.000000	98.831868 
3601.000000	98.783775 
3600.000000	98.751450 
3599.000000	98.756553 
3598.000000	98.792974 
3597.000000	98.829232 
3596.000000	98.836457 
3595.000000	98.814374 
3594.000000	98.786852 
3593.000000	98.770952 
3592.000000	98.760893 
3591.000000	98.744327 
3590.000000	98.725519 
3589.000000	98.726387 
3588.000000	98.759451 
3587.000000	98.804000 
3586.000000	98.824422 
3585.000000	98.807401 
3584.000000	98.768841 
3583.000000	98.735052 
3582.000000	98.721364 
3581.000000	98.722909 
3580.000000	98.722386 
3579.000000	98.707579 
3578.000000	98.681162 
3577.000000	98.654455 
3576.000000	98.634914 
3575.000000	98.621802 
3574.000000	98.613424 
3573.000000	98.615038 
3572.000000	98.637579 
3571.000000	98.688596 
3570.000000	98.763182 
3569.000000	98.840612 
3568.000000	98.894688 
3567.000000	98.912873 
3566.000000	98.901126 
3565.000000	98.867774 
3564.000000	98.815125 
3563.000000	98.750368 
3562.000000	98.693978 
3561.000000	98.667189 
3560.000000	98.670053 
3559.000000	98.680856 
3558.000000	98.681007 
3557.000000	98.675543 
3556.000000	98.684305 
3555.000000	98.715193 
3554.000000	98.749165 
3553.000000	98.753864 
3552.000000	98.714461 
3551.000000	98.649594 
3550.000000	98.595768 
3549.000000	98.577556 
3548.000000	98.591379 
3547.000000	98.615133 
3546.000000	98.633601 
3545.000000	98.652003 
3544.000000	98.681926 
3543.000000	98.721688 
3542.000000	98.758005 
3541.000000	98.781939 
3540.000000	98.794754 
3539.000000	98.797867 
3538.000000	98.786272 
3537.000000	98.757853 
3536.000000	98.724446 
3535.000000	98.704371 
3534.000000	98.704542 
3533.000000	98.715954 
3532.000000	98.726280 
3531.000000	98.731121 
3530.000000	98.731521 
3529.000000	98.726015 
3528.000000	98.711014 
3527.000000	98.688533 
3526.000000	98.668205 
3525.000000	98.659990 
3524.000000	98.666063 
3523.000000	98.679261 
3522.000000	98.687033 
3521.000000	98.676873 
3520.000000	98.642252 
3519.000000	98.589396 
3518.000000	98.540689 
3517.000000	98.524872 
3516.000000	98.555737 
3515.000000	98.617334 
3514.000000	98.674749 
3513.000000	98.703407 
3512.000000	98.707267 
3511.000000	98.706144 
3510.000000	98.707129 
3509.000000	98.695999 
3508.000000	98.660356 
3507.000000	98.614386 
3506.000000	98.592425 
3505.000000	98.618246 
3504.000000	98.681775 
3503.000000	98.747170 
3502.000000	98.781861 
3501.000000	98.775881 
3500.000000	98.738896 
3499.000000	98.690742 
3498.000000	98.655945 
3497.000000	98.653868 
3496.000000	98.682654 
3495.000000	98.715331 
3494.000000	98.722361 
3493.000000	98.700562 
3492.000000	98.673638 
3491.000000	98.663108 
3490.000000	98.664376 
3489.000000	98.656396 
3488.000000	98.630302 
3487.000000	98.601280 
3486.000000	98.592124 
3485.000000	98.612098 
3484.000000	98.651828 
3483.000000	98.691184 
3482.000000	98.710089 
3481.000000	98.698344 
3480.000000	98.661612 
3479.000000	98.617899 
3478.000000	98.585721 
3477.000000	98.574496 
3476.000000	98.583878 
3475.000000	98.608326 
3474.000000	98.640095 
3473.000000	98.670091 
3472.000000	98.689476 
3471.000000	98.691985 
3470.000000	98.675329 
3469.000000	98.642044 
3468.000000	98.599936 
3467.000000	98.559796 
3466.000000	98.530262 
3465.000000	98.514519 
3464.000000	98.512245 
3463.000000	98.522872 
3462.000000	98.544810 
3461.000000	98.572920 
3460.000000	98.600017 
3459.000000	98.621757 
3458.000000	98.638642 
3457.000000	98.653473 
3456.000000	98.668752 
3455.000000	98.686493 
3454.000000	98.707469 
3453.000000	98.728581 
3452.000000	98.742990 
3451.000000	98.745391 
3450.000000	98.736665 
3449.000000	98.722145 
3448.000000	98.706155 
3447.000000	98.689765 
3446.000000	98.673477 
3445.000000	98.660019 
3444.000000	98.653609 
3443.000000	98.657608 
3442.000000	98.673076 
3441.000000	98.697785 
3440.000000	98.725233 
3439.000000	98.746088 
3438.000000	98.754286 
3437.000000	98.753338 
3436.000000	98.755209 
3435.000000	98.770803 
3434.000000	98.800580 
3433.000000	98.833633 
3432.000000	98.854329 
3431.000000	98.849817 
3430.000000	98.816274 
3429.000000	98.764381 
3428.000000	98.718575 
3427.000000	98.703006 
3426.000000	98.722123 
3425.000000	98.756085 
3424.000000	98.778804 
3423.000000	98.779896 
3422.000000	98.767402 
3421.000000	98.752836 
3420.000000	98.739613 
3419.000000	98.726212 
3418.000000	98.713834 
3417.000000	98.706283 
3416.000000	98.704727 
3415.000000	98.705748 
3414.000000	98.703889 
3413.000000	98.695087 
3412.000000	98.679528 
3411.000000	98.663614 
3410.000000	98.657989 
3409.000000	98.670087 
3408.000000	98.696276 
3407.000000	98.721730 
3406.000000	98.730497 
3405.000000	98.718925 
3404.000000	98.701136 
3403.000000	98.699071 
3402.000000	98.723135 
3401.000000	98.761559 
3400.000000	98.791528 
3399.000000	98.802471 
3398.000000	98.806645 
3397.000000	98.823626 
3396.000000	98.855949 
3395.000000	98.884815 
3394.000000	98.890544 
3393.000000	98.873129 
3392.000000	98.849435 
3391.000000	98.832401 
3390.000000	98.819215 
3389.000000	98.801254 
3388.000000	98.779675 
3387.000000	98.764670 
3386.000000	98.759392 
3385.000000	98.751183 
3384.000000	98.725293 
3383.000000	98.686147 
3382.000000	98.658671 
3381.000000	98.664826 
3380.000000	98.701172 
3379.000000	98.742607 
3378.000000	98.767549 
3377.000000	98.775471 
3376.000000	98.780270 
3375.000000	98.792594 
3374.000000	98.812639 
3373.000000	98.835672 
3372.000000	98.856829 
3371.000000	98.869699 
3370.000000	98.867314 
3369.000000	98.849959 
3368.000000	98.829268 
3367.000000	98.818724 
3366.000000	98.819106 
3365.000000	98.817153 
3364.000000	98.800659 
3363.000000	98.771713 
3362.000000	98.742399 
3361.000000	98.720151 
3360.000000	98.702892 
3359.000000	98.689276 
3358.000000	98.687222 
3357.000000	98.705422 
3356.000000	98.737538 
3355.000000	98.762636 
3354.000000	98.765785 
3353.000000	98.753775 
3352.000000	98.745299 
3351.000000	98.748189 
3350.000000	98.753004 
3349.000000	98.748934 
3348.000000	98.737609 
3347.000000	98.727397 
3346.000000	98.721379 
3345.000000	98.718808 
3344.000000	98.724453 
3343.000000	98.745794 
3342.000000	98.778528 
3341.000000	98.803109 
3340.000000	98.801997 
3339.000000	98.777566 
3338.000000	98.748377 
3337.000000	98.730053 
3336.000000	98.723816 
3335.000000	98.721798 
3334.000000	98.717614 
3333.000000	98.710310 
3332.000000	98.702703 
3331.000000	98.698448 
3330.000000	98.697660 
3329.000000	98.693495 
3328.000000	98.677106 
3327.000000	98.650786 
3326.000000	98.633561 
3325.000000	98.646254 
3324.000000	98.688605 
3323.000000	98.735952 
3322.000000	98.762532 
3321.000000	98.764873 
3320.000000	98.758767 
3319.000000	98.757438 
3318.000000	98.760325 
3317.000000	98.762512 
3316.000000	98.765073 
3315.000000	98.770665 
3314.000000	98.775047 
3313.000000	98.771111 
3312.000000	98.759586 
3311.000000	98.748436 
3310.000000	98.741055 
3309.000000	98.732188 
3308.000000	98.719265 
3307.000000	98.712143 
3306.000000	98.724563 
3305.000000	98.755738 
3304.000000	98.785409 
3303.000000	98.790495 
3302.000000	98.766226 
3301.000000	98.729168 
3300.000000	98.699730 
3299.000000	98.684411 
3298.000000	98.676474 
3297.000000	98.670462 
3296.000000	98.670153 
3295.000000	98.680729 
3294.000000	98.698687 
3293.000000	98.714441 
3292.000000	98.722561 
3291.000000	98.724794 
3290.000000	98.724027 
3289.000000	98.720036 
3288.000000	98.711065 
3287.000000	98.695321 
3286.000000	98.670890 
3285.000000	98.638974 
3284.000000	98.608492 
3283.000000	98.593410 
3282.000000	98.603618 
3281.000000	98.640149 
3280.000000	98.696779 
3279.000000	98.759545 
3278.000000	98.805409 
3277.000000	98.813140 
3276.000000	98.784387 
3275.000000	98.749204 
3274.000000	98.741082 
3273.000000	98.765941 
3272.000000	98.799654 
3271.000000	98.813410 
3270.000000	98.796615 
3269.000000	98.759064 
3268.000000	98.720273 
3267.000000	98.697597 
3266.000000	98.695902 
3265.000000	98.703862 
3264.000000	98.704249 
3263.000000	98.691159 
3262.000000	98.674639 
3261.000000	98.667683 
3260.000000	98.673735 
3259.000000	98.689021 
3258.000000	98.710526 
3257.000000	98.734817 
3256.000000	98.752586 
3255.000000	98.753424 
3254.000000	98.737803 
3253.000000	98.718665 
3252.000000	98.708321 
3251.000000	98.707073 
3250.000000	98.706575 
3249.000000	98.700789 
3248.000000	98.690928 
3247.000000	98.682881 
3246.000000	98.683779 
3245.000000	98.699078 
3244.000000	98.727242 
3243.000000	98.756091 
3242.000000	98.769056 
3241.000000	98.758998 
3240.000000	98.735193 
3239.000000	98.714797 
3238.000000	98.707889 
3237.000000	98.711579 
3236.000000	98.716569 
3235.000000	98.716719 
3234.000000	98.712808 
3233.000000	98.709942 
3232.000000	98.712339 
3231.000000	98.719390 
3230.000000	98.726399 
3229.000000	98.729815 
3228.000000	98.730816 
3227.000000	98.731814 
3226.000000	98.729832 
3225.000000	98.716325 
3224.000000	98.685559 
3223.000000	98.642857 
3222.000000	98.604111 
3221.000000	98.586759 
3220.000000	98.598251 
3219.000000	98.629268 
3218.000000	98.658206 
3217.000000	98.666801 
3216.000000	98.655389 
3215.000000	98.642811 
3214.000000	98.649024 
3213.000000	98.676404 
3212.000000	98.707353 
3211.000000	98.719367 
3210.000000	98.703819 
3209.000000	98.673556 
3208.000000	98.653041 
3207.000000	98.657823 
3206.000000	98.680490 
3205.000000	98.697082 
3204.000000	98.689129 
3203.000000	98.659823 
3202.000000	98.629127 
3201.000000	98.615830 
3200.000000	98.625674 
3199.000000	98.652617 
3198.000000	98.685602 
3197.000000	98.713315 
3196.000000	98.727736 
3195.000000	98.728683 
3194.000000	98.726063 
3193.000000	98.734459 
3192.000000	98.761086 
3191.000000	98.797295 
3190.000000	98.823953 
3189.000000	98.827447 
3188.000000	98.809444 
3187.000000	98.779783 
3186.000000	98.743589 
3185.000000	98.700744 
3184.000000	98.656071 
3183.000000	98.621658 
3182.000000	98.605917 
3181.000000	98.605782 
3180.000000	98.613016 
3179.000000	98.622932 
3178.000000	98.632624 
3177.000000	98.636786 
3176.000000	98.633560 
3175.000000	98.631627 
3174.000000	98.642373 
3173.000000	98.664032 
3172.000000	98.680384 
3171.000000	98.677273 
3170.000000	98.655794 
3169.000000	98.628391 
3168.000000	98.607963 
3167.000000	98.603164 
3166.000000	98.617407 
3165.000000	98.645204 
3164.000000	98.670745 
3163.000000	98.676285 
3162.000000	98.655464 
3161.000000	98.618720 
3160.000000	98.585731 
3159.000000	98.571859 
3158.000000	98.579669 
3157.000000	98.601048 
3156.000000	98.625537 
3155.000000	98.645238 
3154.000000	98.653701 
3153.000000	98.646570 
3152.000000	98.627638 
3151.000000	98.609902 
3150.000000	98.603718 
3149.000000	98.604919 
3148.000000	98.600684 
3147.000000	98.586510 
3146.000000	98.570896 
3145.000000	98.563716 
3144.000000	98.568057 
3143.000000	98.584276 
3142.000000	98.611868 
3141.000000	98.642259 
3140.000000	98.659047 
3139.000000	98.654137 
3138.000000	98.638176 
3137.000000	98.626670 
3136.000000	98.620604 
3135.000000	98.610959 
3134.000000	98.599451 
3133.000000	98.601073 
3132.000000	98.621625 
3131.000000	98.642989 
3130.000000	98.639089 
3129.000000	98.603481 
3128.000000	98.556479 
3127.000000	98.526666 
3126.000000	98.527979 
3125.000000	98.552131 
3124.000000	98.578486 
3123.000000	98.590419 
3122.000000	98.585405 
3121.000000	98.573238 
3120.000000	98.567107 
3119.000000	98.575086 
3118.000000	98.594443 
3117.000000	98.610287 
3116.000000	98.604398 
3115.000000	98.573002 
3114.000000	98.535058 
3113.000000	98.515852 
3112.000000	98.521660 
3111.000000	98.537119 
3110.000000	98.548623 
3109.000000	98.560731 
3108.000000	98.582768 
3107.000000	98.606726 
3106.000000	98.610080 
3105.000000	98.581713 
3104.000000	98.538226 
3103.000000	98.511162 
3102.000000	98.519475 
3101.000000	98.553564 
3100.000000	98.583316 
3099.000000	98.583268 
3098.000000	98.554514 
3097.000000	98.523214 
3096.000000	98.515057 
3095.000000	98.530714 
3094.000000	98.548836 
3093.000000	98.551094 
3092.000000	98.537773 
3091.000000	98.519094 
3090.000000	98.500244 
3089.000000	98.480445 
3088.000000	98.461463 
3087.000000	98.449170 
3086.000000	98.446764 
3085.000000	98.451111 
3084.000000	98.456083 
3083.000000	98.456576 
3082.000000	98.450087 
3081.000000	98.438001 
3080.000000	98.425259 
3079.000000	98.415785 
3078.000000	98.408817 
3077.000000	98.402574 
3076.000000	98.399811 
3075.000000	98.404381 
3074.000000	98.412022 
3073.000000	98.410637 
3072.000000	98.393214 
3071.000000	98.367099 
3070.000000	98.346878 
3069.000000	98.340141 
3068.000000	98.342291 
3067.000000	98.342373 
3066.000000	98.331012 
3065.000000	98.305299 
3064.000000	98.270725 
3063.000000	98.238449 
3062.000000	98.217994 
3061.000000	98.212540 
3060.000000	98.221569 
3059.000000	98.243935 
3058.000000	98.273963 
3057.000000	98.297625 
3056.000000	98.300180 
3055.000000	98.279420 
3054.000000	98.246702 
3053.000000	98.214106 
3052.000000	98.185923 
3051.000000	98.163527 
3050.000000	98.150601 
3049.000000	98.147228 
3048.000000	98.143210 
3047.000000	98.125564 
3046.000000	98.092939 
3045.000000	98.056653 
3044.000000	98.026335 
3043.000000	97.999359 
3042.000000	97.966744 
3041.000000	97.925209 
3040.000000	97.879780 
3039.000000	97.836542 
3038.000000	97.796241 
3037.000000	97.754420 
3036.000000	97.705381 
3035.000000	97.646348 
3034.000000	97.579762 
3033.000000	97.511618 
3032.000000	97.445979 
3031.000000	97.380783 
3030.000000	97.309171 
3029.000000	97.223748 
3028.000000	97.118979 
3027.000000	96.992078 
3026.000000	96.844836 
3025.000000	96.683804 
3024.000000	96.515291 
3023.000000	96.339315 
3022.000000	96.149966 
3021.000000	95.941108 
3020.000000	95.709284 
3019.000000	95.452531 
3018.000000	95.172239 
3017.000000	94.879218 
3016.000000	94.593849 
3015.000000	94.334773 
3014.000000	94.107118 
3013.000000	93.903791 
3012.000000	93.718275 
3011.000000	93.555920 
3010.000000	93.435103 
3009.000000	93.378670 
3008.000000	93.400128 
3007.000000	93.492548 
3006.000000	93.630844 
3005.000000	93.789464 
3004.000000	93.958720 
3003.000000	94.141357 
3002.000000	94.335425 
3001.000000	94.528087 
3000.000000	94.707729 
2999.000000	94.873496 
2998.000000	95.026851 
2997.000000	95.160405 
2996.000000	95.264126 
2995.000000	95.340057 
2994.000000	95.401427 
2993.000000	95.455965 
2992.000000	95.498152 
2991.000000	95.519931 
2990.000000	95.521790 
2989.000000	95.509627 
2988.000000	95.487223 
2987.000000	95.456977 
2986.000000	95.422287 
2985.000000	95.382370 
2984.000000	95.328816 
2983.000000	95.255276 
2982.000000	95.167682 
2981.000000	95.074508 
2980.000000	94.966050 
2979.000000	94.814585 
2978.000000	94.601882 
2977.000000	94.340044 
2976.000000	94.058437 
2975.000000	93.774195 
2974.000000	93.481323 
2973.000000	93.163534 
2972.000000	92.807806 
2971.000000	92.406775 
2970.000000	91.958636 
2969.000000	91.469837 
2968.000000	90.952827 
2967.000000	90.417590 
2966.000000	89.868484 
2965.000000	89.310790 
2964.000000	88.755539 
2963.000000	88.215189 
2962.000000	87.698217 
2961.000000	87.209502 
2960.000000	86.750865 
2959.000000	86.318229 
2958.000000	85.904394 
2957.000000	85.511516 
2956.000000	85.158038 
2955.000000	84.866514 
2954.000000	84.644734 
2953.000000	84.482839 
2952.000000	84.366117 
2951.000000	84.282227 
2950.000000	84.214127 
2949.000000	84.133749 
2948.000000	84.009175 
2947.000000	83.816153 
2946.000000	83.540264 
2945.000000	83.170490 
2944.000000	82.694399 
2943.000000	82.099959 
2942.000000	81.382606 
2941.000000	80.553398 
2940.000000	79.639826 
2939.000000	78.673204 
2938.000000	77.671120 
2937.000000	76.633611 
2936.000000	75.556669 
2935.000000	74.446473 
2934.000000	73.320382 
2933.000000	72.201230 
2932.000000	71.115703 
2931.000000	70.092871 
2930.000000	69.156323 
2929.000000	68.317849 
2928.000000	67.585505 
2927.000000	66.979033 
2926.000000	66.532886 
2925.000000	66.282865 
2924.000000	66.251969 
2923.000000	66.446649 
2922.000000	66.859105 
2921.000000	67.471869 
2920.000000	68.264591 
2919.000000	69.215149 
2918.000000	70.288251 
2917.000000	71.425255 
2916.000000	72.557144 
2915.000000	73.634463 
2914.000000	74.642599 
2913.000000	75.589387 
2912.000000	76.485207 
2911.000000	77.335679 
2910.000000	78.143907 
2909.000000	78.911352 
2908.000000	79.637405 
2907.000000	80.322050 
2906.000000	80.969710 
2905.000000	81.589886 
2904.000000	82.193508 
2903.000000	82.786198 
2902.000000	83.362514 
2901.000000	83.909431 
2900.000000	84.419420 
2899.000000	84.899491 
2898.000000	85.364009 
2897.000000	85.820662 
2896.000000	86.267968 
2895.000000	86.704023 
2894.000000	87.129914 
2893.000000	87.543343 
2892.000000	87.935738 
2891.000000	88.299315 
2890.000000	88.633668 
2889.000000	88.942987 
2888.000000	89.229436 
2887.000000	89.490365 
2886.000000	89.719305 
2885.000000	89.908803 
2884.000000	90.054860 
2883.000000	90.158189 
2882.000000	90.217414 
2881.000000	90.221168 
2880.000000	90.152196 
2879.000000	90.001893 
2878.000000	89.778401 
2877.000000	89.501036 
2876.000000	89.192352 
2875.000000	88.877721 
2874.000000	88.585532 
2873.000000	88.338623 
2872.000000	88.141977 
2871.000000	87.977488 
2870.000000	87.808511 
2869.000000	87.589723 
2868.000000	87.278338 
2867.000000	86.842684 
2866.000000	86.263622 
2865.000000	85.531016 
2864.000000	84.643191 
2863.000000	83.610801 
2862.000000	82.458822 
2861.000000	81.224337 
2860.000000	79.955858 
2859.000000	78.714940 
2858.000000	77.572660 
2857.000000	76.602499 
2856.000000	75.878092 
2855.000000	75.474497 
2854.000000	75.456106 
2853.000000	75.850983 
2852.000000	76.636112 
2851.000000	77.747494 
2850.000000	79.098236 
2849.000000	80.586638 
2848.000000	82.105887 
2847.000000	83.569375 
2846.000000	84.933640 
2845.000000	86.191814 
2844.000000	87.345100 
2843.000000	88.386120 
2842.000000	89.308806 
2841.000000	90.123572 
2840.000000	90.853249 
2839.000000	91.514066 
2838.000000	92.105201 
2837.000000	92.618546 
2836.000000	93.055706 
2835.000000	93.432855 
2834.000000	93.770640 
2833.000000	94.082548 
2832.000000	94.372816 
2831.000000	94.641209 
2830.000000	94.887034 
2829.000000	95.111112 
2828.000000	95.317161 
2827.000000	95.509943 
2826.000000	95.689504 
2825.000000	95.850008 
2824.000000	95.989105 
2823.000000	96.116761 
2822.000000	96.247791 
2821.000000	96.383764 
2820.000000	96.508109 
2819.000000	96.602919 
2818.000000	96.668053 
2817.000000	96.721495 
2816.000000	96.784214 
2815.000000	96.866358 
2814.000000	96.962971 
2813.000000	97.058271 
2812.000000	97.136749 
2811.000000	97.194880 
2810.000000	97.241746 
2809.000000	97.286735 
2808.000000	97.329971 
2807.000000	97.367940 
2806.000000	97.404288 
2805.000000	97.448742 
2804.000000	97.505609 
2803.000000	97.567508 
2802.000000	97.620245 
2801.000000	97.651552 
2800.000000	97.658796 
2799.000000	97.654051 
2798.000000	97.659332 
2797.000000	97.688370 
2796.000000	97.731179 
2795.000000	97.763134 
2794.000000	97.771864 
2793.000000	97.769733 
2792.000000	97.777791 
2791.000000	97.804223 
2790.000000	97.842987 
2789.000000	97.886220 
2788.000000	97.929187 
2787.000000	97.966199 
2786.000000	97.991727 
2785.000000	98.007722 
2784.000000	98.023335 
2783.000000	98.044220 
2782.000000	98.065719 
2781.000000	98.078738 
2780.000000	98.079241 
2779.000000	98.070893 
2778.000000	98.062615 
2777.000000	98.065754 
2776.000000	98.088519 
2775.000000	98.127663 
2774.000000	98.167316 
2773.000000	98.191347 
2772.000000	98.197498 
2771.000000	98.196278 
2770.000000	98.196639 
2769.000000	98.197160 
2768.000000	98.192211 
2767.000000	98.181859 
2766.000000	98.172261 
2765.000000	98.168904 
2764.000000	98.173306 
2763.000000	98.185157 
2762.000000	98.203195 
2761.000000	98.222404 
2760.000000	98.233489 
2759.000000	98.229262 
2758.000000	98.213294 
2757.000000	98.200895 
2756.000000	98.207928 
2755.000000	98.235337 
2754.000000	98.264755 
2753.000000	98.272939 
2752.000000	98.253411 
2751.000000	98.223049 
2750.000000	98.205912 
2749.000000	98.211929 
2748.000000	98.233108 
2747.000000	98.257509 
2746.000000	98.280947 
2745.000000	98.303769 
2744.000000	98.322184 
2743.000000	98.329030 
2742.000000	98.322654 
2741.000000	98.310182 
2740.000000	98.300075 
2739.000000	98.294229 
2738.000000	98.289598 
2737.000000	98.285195 
2736.000000	98.283495 
2735.000000	98.284871 
2734.000000	98.284759 
2733.000000	98.279299 
2732.000000	98.271976 
2731.000000	98.271340 
2730.000000	98.281819 
2729.000000	98.298799 
2728.000000	98.313056 
2727.000000	98.317823 
2726.000000	98.311158 
2725.000000	98.294384 
2724.000000	98.271010 
2723.000000	98.246483 
2722.000000	98.226951 
2721.000000	98.217863 
2720.000000	98.223844 
2719.000000	98.247725 
2718.000000	98.286412 
2717.000000	98.327390 
2716.000000	98.352878 
2715.000000	98.351850 
2714.000000	98.330092 
2713.000000	98.307821 
2712.000000	98.304593 
2711.000000	98.323910 
2710.000000	98.351733 
2709.000000	98.370207 
2708.000000	98.372234 
2707.000000	98.362367 
2706.000000	98.346405 
2705.000000	98.325404 
2704.000000	98.300780 
2703.000000	98.280104 
2702.000000	98.272983 
2701.000000	98.281724 
2700.000000	98.298835 
2699.000000	98.313376 
2698.000000	98.318452 
2697.000000	98.314246 
2696.000000	98.306496 
2695.000000	98.301342 
2694.000000	98.299626 
2693.000000	98.297239 
2692.000000	98.292747 
2691.000000	98.291824 
2690.000000	98.299438 
2689.000000	98.309042 
2688.000000	98.306148 
2687.000000	98.285039 
2686.000000	98.257312 
2685.000000	98.240072 
2684.000000	98.238584 
2683.000000	98.244523 
2682.000000	98.248961 
2681.000000	98.251358 
2680.000000	98.254864 
2679.000000	98.257839 
2678.000000	98.254871 
2677.000000	98.245929 
2676.000000	98.240595 
2675.000000	98.250066 
2674.000000	98.274889 
2673.000000	98.302479 
2672.000000	98.318277 
2671.000000	98.318900 
2670.000000	98.312940 
2669.000000	98.309093 
2668.000000	98.305774 
2667.000000	98.294572 
2666.000000	98.273601 
2665.000000	98.254524 
2664.000000	98.252974 
2663.000000	98.271880 
2662.000000	98.297518 
2661.000000	98.314420 
2660.000000	98.321434 
2659.000000	98.328914 
2658.000000	98.342142 
2657.000000	98.354637 
2656.000000	98.359477 
2655.000000	98.359541 
2654.000000	98.360891 
2653.000000	98.361565 
2652.000000	98.355271 
2651.000000	98.343743 
2650.000000	98.336323 
2649.000000	98.336251 
2648.000000	98.335735 
2647.000000	98.328509 
2646.000000	98.321268 
2645.000000	98.327340 
2644.000000	98.351946 
2643.000000	98.387449 
2642.000000	98.420117 
2641.000000	98.437991 
2640.000000	98.435919 
2639.000000	98.419464 
2638.000000	98.403712 
2637.000000	98.402046 
2636.000000	98.412846 
2635.000000	98.419915 
2634.000000	98.409204 
2633.000000	98.384659 
2632.000000	98.365137 
2631.000000	98.364792 
2630.000000	98.378605 
2629.000000	98.389555 
2628.000000	98.388848 
2627.000000	98.384326 
2626.000000	98.387084 
2625.000000	98.395639 
2624.000000	98.399804 
2623.000000	98.397556 
2622.000000	98.399561 
2621.000000	98.415048 
2620.000000	98.440127 
2619.000000	98.463509 
2618.000000	98.477901 
2617.000000	98.481504 
2616.000000	98.474312 
2615.000000	98.460593 
2614.000000	98.452102 
2613.000000	98.459895 
2612.000000	98.481011 
2611.000000	98.499339 
2610.000000	98.503257 
2609.000000	98.498884 
2608.000000	98.501908 
2607.000000	98.517963 
2606.000000	98.535704 
2605.000000	98.541125 
2604.000000	98.535699 
2603.000000	98.535551 
2602.000000	98.551413 
2601.000000	98.573023 
2600.000000	98.576702 
2599.000000	98.547053 
2598.000000	98.489292 
2597.000000	98.424427 
2596.000000	98.377919 
2595.000000	98.369125 
2594.000000	98.400202 
2593.000000	98.451106 
2592.000000	98.493535 
2591.000000	98.515998 
2590.000000	98.530361 
2589.000000	98.549912 
2588.000000	98.568902 
2587.000000	98.571896 
2586.000000	98.557609 
2585.000000	98.542358 
2584.000000	98.540824 
2583.000000	98.552920 
2582.000000	98.570255 
2581.000000	98.586368 
2580.000000	98.597868 
2579.000000	98.602662 
2578.000000	98.600862 
2577.000000	98.593631 
2576.000000	98.581085 
2575.000000	98.567782 
2574.000000	98.569526 
2573.000000	98.602346 
2572.000000	98.657382 
2571.000000	98.695890 
2570.000000	98.681558 
2569.000000	98.617732 
2568.000000	98.545875 
2567.000000	98.507872 
2566.000000	98.514493 
2565.000000	98.546324 
2564.000000	98.575673 
2563.000000	98.587073 
2562.000000	98.584795 
2561.000000	98.584193 
2560.000000	98.592494 
2559.000000	98.598843 
2558.000000	98.588608 
2557.000000	98.564715 
2556.000000	98.544071 
2555.000000	98.532521 
2554.000000	98.517807 
2553.000000	98.494469 
2552.000000	98.481567 
2551.000000	98.500665 
2550.000000	98.543687 
2549.000000	98.579238 
2548.000000	98.589268 
2547.000000	98.584085 
2546.000000	98.580466 
2545.000000	98.581940 
2544.000000	98.585963 
2543.000000	98.594131 
2542.000000	98.604053 
2541.000000	98.602808 
2540.000000	98.582269 
2539.000000	98.555074 
2538.000000	98.544198 
2537.000000	98.560896 
2536.000000	98.600947 
2535.000000	98.654407 
2534.000000	98.705933 
2533.000000	98.732388 
2532.000000	98.719170 
2531.000000	98.680181 
2530.000000	98.646366 
2529.000000	98.631711 
2528.000000	98.623757 
2527.000000	98.609675 
2526.000000	98.595053 
2525.000000	98.590060 
2524.000000	98.593152 
2523.000000	98.599738 
2522.000000	98.613664 
2521.000000	98.636108 
2520.000000	98.653665 
2519.000000	98.654344 
2518.000000	98.648581 
2517.000000	98.655417 
2516.000000	98.669933 
2515.000000	98.664446 
2514.000000	98.626743 
2513.000000	98.579688 
2512.000000	98.553113 
2511.000000	98.549432 
2510.000000	98.549866 
2509.000000	98.546816 
2508.000000	98.555026 
2507.000000	98.589949 
2506.000000	98.645623 
2505.000000	98.698529 
2504.000000	98.729039 
2503.000000	98.735759 
2502.000000	98.730782 
2501.000000	98.724548 
2500.000000	98.717410 
2499.000000	98.705903 
2498.000000	98.693606 
2497.000000	98.689997 
2496.000000	98.697176 
2495.000000	98.703281 
2494.000000	98.694242 
2493.000000	98.670387 
2492.000000	98.646979 
2491.000000	98.638749 
2490.000000	98.647741 
2489.000000	98.666405 
2488.000000	98.688435 
2487.000000	98.713081 
2486.000000	98.738940 
2485.000000	98.756153 
2484.000000	98.748516 
2483.000000	98.707146 
2482.000000	98.643584 
2481.000000	98.587494 
2480.000000	98.567769 
2479.000000	98.592769 
2478.000000	98.646131 
2477.000000	98.699128 
2476.000000	98.728203 
2475.000000	98.726040 
2474.000000	98.700938 
2473.000000	98.667088 
2472.000000	98.634550 
2471.000000	98.607903 
2470.000000	98.592040 
2469.000000	98.593551 
2468.000000	98.613225 
2467.000000	98.641151 
2466.000000	98.664642 
2465.000000	98.680327 
2464.000000	98.694187 
2463.000000	98.710186 
2462.000000	98.723876 
2461.000000	98.728394 
2460.000000	98.722394 
2459.000000	98.710178 
2458.000000	98.697783 
2457.000000	98.690953 
2456.000000	98.692789 
2455.000000	98.699732 
2454.000000	98.702779 
2453.000000	98.696993 
2452.000000	98.688669 
2451.000000	98.689860 
2450.000000	98.706670 
2449.000000	98.734980 
2448.000000	98.764549 
2447.000000	98.782779 
2446.000000	98.777634 
2445.000000	98.745985 
2444.000000	98.701955 
2443.000000	98.670119 
2442.000000	98.664727 
2441.000000	98.677678 
2440.000000	98.690328 
2439.000000	98.694537 
2438.000000	98.697414 
2437.000000	98.706804 
2436.000000	98.717726 
2435.000000	98.715311 
2434.000000	98.689431 
2433.000000	98.646665 
2432.000000	98.610252 
2431.000000	98.606997 
2430.000000	98.647916 
2429.000000	98.716289 
2428.000000	98.775931 
2427.000000	98.796583 
2426.000000	98.775433 
2425.000000	98.736512 
2424.000000	98.710706 
2423.000000	98.714244 
2422.000000	98.740314 
2421.000000	98.766332 
2420.000000	98.770975 
2419.000000	98.750165 
2418.000000	98.719851 
2417.000000	98.702167 
2416.000000	98.707016 
2415.000000	98.726385 
2414.000000	98.744879 
2413.000000	98.752849 
2412.000000	98.749391 
2411.000000	98.737169 
2410.000000	98.718672 
2409.000000	98.696832 
2408.000000	98.675315 
2407.000000	98.656251 
2406.000000	98.638713 
2405.000000	98.620316 
2404.000000	98.600066 
2403.000000	98.580194 
2402.000000	98.566621 
2401.000000	98.567135 
2400.000000	98.585891 
2399.000000	98.617050 
2398.000000	98.645203 
2397.000000	98.656332 
2396.000000	98.650984 
2395.000000	98.644995 
2394.000000	98.653946 
2393.000000	98.676840 
2392.000000	98.697746 
2391.000000	98.703553 
2390.000000	98.695875 
2389.000000	98.683343 
2388.000000	98.667500 
2387.000000	98.642913 
2386.000000	98.609486 
2385.000000	98.577360 
2384.000000	98.558014 
2383.000000	98.556007 
2382.000000	98.571363 
2381.000000	98.602796 
2380.000000	98.642588 
2379.000000	98.674384 
2378.000000	98.684711 
2377.000000	98.673311 
2376.000000	98.643763 
2375.000000	98.590396 
2374.000000	98.514856 
2373.000000	98.452571 
2372.000000	98.453599 
2371.000000	98.525587 
2370.000000	98.619726 
2369.000000	98.686435 
2368.000000	98.717825 
2367.000000	98.714917 
2366.000000	98.652872 
2365.000000	98.527432 
2364.000000	98.414125 
2363.000000	98.408919 
2362.000000	98.511148 
2361.000000	98.636643 
2360.000000	98.727453 
2359.000000	98.796222 
2358.000000	98.869608 
2357.000000	98.929654 
2356.000000	98.952062 
2355.000000	98.942537 
2354.000000	98.918532 
2353.000000	98.878514 
2352.000000	98.805830 
2351.000000	98.718083 
2350.000000	98.659423 
2349.000000	98.659764 
2348.000000	98.702320 
2347.000000	98.721689 
2346.000000	98.672966 
2345.000000	98.577449 
2344.000000	98.516364 
2343.000000	98.540439 
2342.000000	98.622480 
2341.000000	98.704419 
2340.000000	98.741589 
2339.000000	98.733300 
2338.000000	98.703685 
2337.000000	98.686888 
2336.000000	98.701351 
2335.000000	98.740140 
2334.000000	98.774001 
2333.000000	98.787255 
2332.000000	98.783158 
2331.000000	98.781911 
2330.000000	98.785129 
2329.000000	98.788223 
2328.000000	98.796378 
2327.000000	98.800972 
2326.000000	98.778172 
2325.000000	98.701861 
2324.000000	98.602055 
2323.000000	98.548487 
2322.000000	98.579673 
2321.000000	98.661341 
2320.000000	98.721928 
2319.000000	98.732132 
2318.000000	98.707793 
2317.000000	98.683042 
2316.000000	98.670778 
2315.000000	98.666574 
2314.000000	98.655541 
2313.000000	98.629682 
2312.000000	98.593162 
2311.000000	98.562229 
2310.000000	98.554348 
2309.000000	98.573874 
2308.000000	98.606032 
2307.000000	98.624173 
2306.000000	98.614552 
2305.000000	98.593080 
2304.000000	98.592832 
2303.000000	98.628689 
2302.000000	98.677365 
2301.000000	98.699976 
2300.000000	98.678174 
2299.000000	98.626374 
2298.000000	98.574823 
2297.000000	98.550888 
2296.000000	98.569480 
2295.000000	98.624049 
2294.000000	98.688765 
2293.000000	98.733854 
2292.000000	98.746191 
2291.000000	98.727727 
2290.000000	98.688548 
2289.000000	98.648699 
2288.000000	98.639303 
2287.000000	98.676089 
2286.000000	98.732192 
2285.000000	98.755403 
2284.000000	98.720807 
2283.000000	98.652956 
2282.000000	98.593238 
2281.000000	98.562556 
2280.000000	98.560380 
2279.000000	98.581520 
2278.000000	98.617825 
2277.000000	98.656836 
2276.000000	98.692033 
2275.000000	98.728284 
2274.000000	98.766553 
2273.000000	98.793033 
2272.000000	98.793418 
2271.000000	98.769365 
2270.000000	98.734212 
2269.000000	98.702095 
2268.000000	98.686651 
2267.000000	98.695063 
2266.000000	98.712709 
2265.000000	98.708466 
2264.000000	98.669135 
2263.000000	98.616725 
2262.000000	98.581822 
2261.000000	98.573230 
2260.000000	98.586945 
2259.000000	98.626856 
2258.000000	98.695093 
2257.000000	98.771972 
2256.000000	98.827089 
2255.000000	98.847850 
2254.000000	98.840340 
2253.000000	98.811485 
2252.000000	98.769415 
2251.000000	98.735074 
2250.000000	98.729863 
2249.000000	98.750021 
2248.000000	98.771306 
2247.000000	98.780275 
2246.000000	98.785625 
2245.000000	98.797900 
2244.000000	98.814793 
2243.000000	98.829544 
2242.000000	98.839001 
2241.000000	98.838299 
2240.000000	98.820693 
2239.000000	98.789392 
2238.000000	98.760139 
2237.000000	98.744438 
2236.000000	98.735305 
2235.000000	98.716901 
2234.000000	98.688184 
2233.000000	98.672042 
2232.000000	98.692979 
2231.000000	98.739665 
2230.000000	98.757837 
2229.000000	98.701839 
2228.000000	98.597344 
2227.000000	98.527424 
2226.000000	98.541176 
2225.000000	98.596412 
2224.000000	98.615451 
2223.000000	98.582893 
2222.000000	98.557055 
2221.000000	98.591271 
2220.000000	98.677088 
2219.000000	98.768543 
2218.000000	98.830526 
2217.000000	98.849779 
2216.000000	98.825814 
2215.000000	98.775595 
2214.000000	98.737959 
2213.000000	98.751398 
2212.000000	98.820099 
2211.000000	98.905778 
2210.000000	98.955395 
2209.000000	98.942490 
2208.000000	98.888213 
2207.000000	98.838812 
2206.000000	98.817996 
2205.000000	98.807728 
2204.000000	98.783575 
2203.000000	98.757432 
2202.000000	98.764780 
2201.000000	98.812667 
2200.000000	98.862763 
2199.000000	98.871735 
2198.000000	98.831658 
2197.000000	98.765998 
2196.000000	98.702763 
2195.000000	98.659998 
2194.000000	98.642701 
2193.000000	98.638689 
2192.000000	98.622909 
2191.000000	98.577054 
2190.000000	98.506004 
2189.000000	98.435419 
2188.000000	98.397421 
2187.000000	98.414863 
2186.000000	98.486393 
2185.000000	98.583586 
2184.000000	98.673928 
2183.000000	98.747117 
2182.000000	98.806380 
2181.000000	98.842399 
2180.000000	98.844768 
2179.000000	98.839816 
2178.000000	98.879470 
2177.000000	98.968105 
2176.000000	99.024968 
2175.000000	98.958491 
2174.000000	98.775530 
2173.000000	98.587424 
2172.000000	98.504431 
2171.000000	98.544908 
2170.000000	98.644143 
2169.000000	98.723361 
2168.000000	98.743364 
2167.000000	98.711388 
2166.000000	98.656681 
2165.000000	98.602923 
2164.000000	98.557619 
2163.000000	98.525597 
2162.000000	98.526665 
2161.000000	98.585661 
2160.000000	98.701013 
2159.000000	98.839098 
2158.000000	98.967282 
2157.000000	99.072455 
2156.000000	99.140071 
2155.000000	99.144443 
2154.000000	99.080140 
2153.000000	98.984350 
2152.000000	98.900452 
2151.000000	98.825101 
2150.000000	98.719693 
2149.000000	98.578989 
2148.000000	98.463027 
2147.000000	98.443962 
2146.000000	98.530914 
2145.000000	98.657079 
2144.000000	98.737184 
2143.000000	98.734271 
2142.000000	98.681646 
2141.000000	98.652692 
2140.000000	98.700721 
2139.000000	98.813290 
2138.000000	98.921798 
2137.000000	98.961079 
2136.000000	98.922997 
2135.000000	98.850339 
2134.000000	98.787279 
2133.000000	98.746979 
2132.000000	98.719364 
2131.000000	98.693331 
2130.000000	98.667932 
2129.000000	98.652067 
2128.000000	98.657983 
2127.000000	98.689278 
2126.000000	98.730643 
2125.000000	98.753105 
2124.000000	98.737088 
2123.000000	98.693439 
2122.000000	98.657705 
2121.000000	98.655079 
2120.000000	98.667217 
2119.000000	98.643905 
2118.000000	98.560836 
2117.000000	98.461328 
2116.000000	98.420473 
2115.000000	98.462427 
2114.000000	98.532004 
2113.000000	98.560820 
2112.000000	98.544916 
2111.000000	98.535158 
2110.000000	98.564643 
2109.000000	98.617575 
2108.000000	98.668217 
2107.000000	98.715290 
2106.000000	98.761533 
2105.000000	98.785576 
2104.000000	98.760498 
2103.000000	98.691342 
2102.000000	98.614876 
2101.000000	98.564948 
2100.000000	98.550652 
2099.000000	98.563871 
2098.000000	98.590583 
2097.000000	98.610594 
2096.000000	98.601445 
2095.000000	98.555703 
2094.000000	98.492135 
2093.000000	98.441911 
2092.000000	98.422045 
2091.000000	98.425620 
2090.000000	98.436891 
2089.000000	98.448934 
2088.000000	98.463009 
2087.000000	98.478492 
2086.000000	98.495091 
2085.000000	98.522178 
2084.000000	98.568848 
2083.000000	98.618856 
2082.000000	98.632457 
2081.000000	98.589325 
2080.000000	98.520382 
2079.000000	98.479251 
2078.000000	98.486316 
2077.000000	98.514896 
2076.000000	98.528990 
2075.000000	98.520124 
2074.000000	98.507967 
2073.000000	98.519119 
2072.000000	98.564403 
2071.000000	98.624025 
2070.000000	98.656332 
2069.000000	98.634631 
2068.000000	98.575496 
2067.000000	98.519900 
2066.000000	98.492053 
2065.000000	98.488785 
2064.000000	98.498586 
2063.000000	98.509485 
2062.000000	98.502202 
2061.000000	98.461932 
2060.000000	98.402666 
2059.000000	98.361412 
2058.000000	98.366265 
2057.000000	98.424193 
2056.000000	98.531482 
2055.000000	98.668041 
2054.000000	98.780304 
2053.000000	98.804178 
2052.000000	98.721620 
2051.000000	98.577751 
2050.000000	98.440035 
2049.000000	98.355669 
2048.000000	98.339806 
2047.000000	98.374738 
2046.000000	98.412605 
2045.000000	98.410526 
2044.000000	98.379851 
2043.000000	98.372670 
2042.000000	98.407691 
2041.000000	98.442237 
2040.000000	98.435345 
2039.000000	98.402155 
2038.000000	98.381107 
2037.000000	98.385743 
2036.000000	98.419897 
2035.000000	98.504841 
2034.000000	98.644476 
2033.000000	98.781765 
2032.000000	98.838858 
2031.000000	98.794290 
2030.000000	98.689564 
2029.000000	98.575835 
2028.000000	98.480617 
2027.000000	98.414471 
2026.000000	98.381123 
2025.000000	98.376478 
2024.000000	98.389702 
2023.000000	98.404267 
2022.000000	98.398454 
2021.000000	98.363772 
2020.000000	98.329985 
2019.000000	98.348035 
2018.000000	98.433470 
2017.000000	98.545676 
2016.000000	98.641075 
2015.000000	98.722849 
2014.000000	98.811851 
2013.000000	98.891488 
2012.000000	98.911737 
2011.000000	98.841786 
2010.000000	98.704457 
2009.000000	98.565428 
2008.000000	98.490498 
2007.000000	98.499187 
2006.000000	98.553849 
2005.000000	98.599828 
2004.000000	98.612229 
2003.000000	98.593210 
2002.000000	98.545127 
2001.000000	98.479779 
2000.000000	98.442169 
1999.000000	98.478330 
1998.000000	98.568964 
1997.000000	98.634780 
1996.000000	98.629309 
1995.000000	98.592030 
1994.000000	98.587427 
1993.000000	98.623813 
1992.000000	98.660126 
1991.000000	98.673296 
1990.000000	98.679784 
1989.000000	98.696280 
1988.000000	98.713468 
1987.000000	98.709704 
1986.000000	98.673777 
1985.000000	98.616066 
1984.000000	98.564299 
1983.000000	98.540509 
1982.000000	98.540557 
1981.000000	98.551574 
1980.000000	98.590461 
1979.000000	98.692043 
1978.000000	98.838845 
1977.000000	98.941124 
1976.000000	98.927842 
1975.000000	98.827362 
1974.000000	98.726111 
1973.000000	98.678091 
1972.000000	98.671929 
1971.000000	98.659491 
1970.000000	98.599599 
1969.000000	98.497588 
1968.000000	98.417601 
1967.000000	98.426332 
1966.000000	98.508672 
1965.000000	98.573157 
1964.000000	98.557189 
1963.000000	98.493428 
1962.000000	98.460939 
1961.000000	98.496895 
1960.000000	98.569452 
1959.000000	98.619677 
1958.000000	98.613822 
1957.000000	98.569543 
1956.000000	98.539643 
1955.000000	98.554589 
1954.000000	98.582006 
1953.000000	98.571124 
1952.000000	98.535757 
1951.000000	98.549354 
1950.000000	98.644305 
1949.000000	98.756442 
1948.000000	98.798761 
1947.000000	98.761936 
1946.000000	98.711103 
1945.000000	98.706355 
1944.000000	98.754300 
1943.000000	98.815760 
1942.000000	98.832573 
1941.000000	98.767220 
1940.000000	98.641511 
1939.000000	98.527659 
1938.000000	98.491428 
1937.000000	98.539813 
1936.000000	98.620755 
1935.000000	98.668293 
1934.000000	98.646462 
1933.000000	98.573289 
1932.000000	98.512341 
1931.000000	98.518751 
1930.000000	98.580847 
1929.000000	98.629537 
1928.000000	98.621231 
1927.000000	98.585657 
1926.000000	98.574736 
1925.000000	98.592857 
1924.000000	98.604520 
1923.000000	98.597669 
1922.000000	98.599245 
1921.000000	98.626844 
1920.000000	98.660602 
1919.000000	98.669064 
1918.000000	98.649005 
1917.000000	98.632018 
1916.000000	98.651236 
1915.000000	98.710633 
1914.000000	98.781827 
1913.000000	98.826864 
1912.000000	98.829189 
1911.000000	98.798046 
1910.000000	98.744927 
1909.000000	98.674777 
1908.000000	98.607227 
1907.000000	98.579083 
1906.000000	98.608672 
1905.000000	98.667995 
1904.000000	98.703811 
1903.000000	98.686225 
1902.000000	98.627296 
1901.000000	98.563676 
1900.000000	98.532615 
1899.000000	98.550083 
1898.000000	98.597537 
1897.000000	98.635115 
1896.000000	98.638518 
1895.000000	98.620945 
1894.000000	98.612467 
1893.000000	98.630817 
1892.000000	98.677469 
1891.000000	98.740085 
1890.000000	98.785885 
1889.000000	98.778062 
1888.000000	98.719118 
1887.000000	98.652745 
1886.000000	98.611450 
1885.000000	98.587889 
1884.000000	98.564995 
1883.000000	98.550625 
1882.000000	98.560934 
1881.000000	98.586253 
1880.000000	98.602475 
1879.000000	98.604821 
1878.000000	98.606512 
1877.000000	98.614021 
1876.000000	98.622957 
1875.000000	98.631620 
1874.000000	98.641369 
1873.000000	98.649042 
1872.000000	98.654558 
1871.000000	98.668271 
1870.000000	98.695773 
1869.000000	98.719998 
1868.000000	98.718114 
1867.000000	98.693865 
1866.000000	98.668059 
1865.000000	98.647354 
1864.000000	98.625648 
1863.000000	98.603775 
1862.000000	98.588290 
1861.000000	98.576768 
1860.000000	98.562966 
1859.000000	98.552151 
1858.000000	98.553068 
1857.000000	98.559514 
1856.000000	98.558010 
1855.000000	98.549299 
1854.000000	98.547502 
1853.000000	98.560419 
1852.000000	98.586950 
1851.000000	98.624251 
1850.000000	98.660694 
1849.000000	98.677072 
1848.000000	98.670130 
1847.000000	98.663016 
1846.000000	98.674810 
1845.000000	98.689676 
1844.000000	98.677613 
1843.000000	98.640242 
1842.000000	98.604108 
1841.000000	98.580859 
1840.000000	98.565080 
1839.000000	98.553293 
1838.000000	98.546390 
1837.000000	98.540494 
1836.000000	98.531754 
1835.000000	98.528215 
1834.000000	98.537830 
1833.000000	98.552161 
1832.000000	98.557731 
1831.000000	98.555915 
1830.000000	98.558185 
1829.000000	98.561555 
1828.000000	98.553171 
1827.000000	98.533600 
1826.000000	98.508581 
1825.000000	98.479793 
1824.000000	98.454414 
1823.000000	98.446779 
1822.000000	98.459771 
1821.000000	98.473890 
1820.000000	98.470983 
1819.000000	98.457686 
1818.000000	98.450921 
1817.000000	98.449681 
1816.000000	98.439944 
1815.000000	98.420743 
1814.000000	98.399688 
1813.000000	98.375141 
1812.000000	98.343803 
1811.000000	98.315498 
1810.000000	98.300374 
1809.000000	98.285532 
1808.000000	98.251216 
1807.000000	98.204108 
1806.000000	98.170005 
1805.000000	98.159069 
1804.000000	98.156555 
1803.000000	98.147096 
1802.000000	98.126262 
1801.000000	98.091500 
1800.000000	98.041837 
1799.000000	97.986401 
1798.000000	97.937821 
1797.000000	97.894284 
1796.000000	97.845206 
1795.000000	97.790345 
1794.000000	97.736899 
1793.000000	97.687356 
1792.000000	97.643735 
1791.000000	97.610111 
1790.000000	97.584780 
1789.000000	97.559178 
1788.000000	97.527746 
1787.000000	97.491539 
1786.000000	97.446769 
1785.000000	97.380718 
1784.000000	97.293631 
1783.000000	97.211482 
1782.000000	97.150295 
1781.000000	97.090713 
1780.000000	97.008587 
1779.000000	96.907006 
1778.000000	96.799975 
1777.000000	96.681937 
1776.000000	96.545444 
1775.000000	96.402428 
1774.000000	96.257557 
1773.000000	96.089041 
1772.000000	95.897936 
1771.000000	95.722212 
1770.000000	95.563761 
1769.000000	95.366362 
1768.000000	95.088482 
1767.000000	94.766249 
1766.000000	94.456915 
1765.000000	94.151070 
1764.000000	93.788609 
1763.000000	93.331478 
1762.000000	92.796857 
1761.000000	92.220426 
1760.000000	91.606274 
1759.000000	90.912621 
1758.000000	90.050551 
1757.000000	88.941135 
1756.000000	87.634258 
1755.000000	86.243450 
1754.000000	84.719441 
1753.000000	82.807279 
1752.000000	80.276402 
1751.000000	77.213493 
1750.000000	73.932713 
1749.000000	70.621305 
1748.000000	67.373064 
1747.000000	64.357935 
1746.000000	61.700328 
1745.000000	59.421242 
1744.000000	57.602416 
1743.000000	56.427066 
1742.000000	56.027856 
1741.000000	56.464308 
1740.000000	57.764936 
1739.000000	59.730770 
1738.000000	61.949729 
1737.000000	64.266938 
1736.000000	66.970845 
1735.000000	70.453696 
1734.000000	74.343329 
1733.000000	77.625809 
1732.000000	80.037177 
1731.000000	81.993653 
1730.000000	83.749769 
1729.000000	85.323187 
1728.000000	86.669275 
1727.000000	87.798927 
1726.000000	88.757150 
1725.000000	89.603152 
1724.000000	90.376264 
1723.000000	91.055150 
1722.000000	91.604375 
1721.000000	92.045922 
1720.000000	92.446438 
1719.000000	92.847955 
1718.000000	93.244432 
1717.000000	93.617843 
1716.000000	93.959920 
1715.000000	94.253800 
1714.000000	94.480545 
1713.000000	94.655063 
1712.000000	94.812414 
1711.000000	94.962184 
1710.000000	95.089411 
1709.000000	95.192166 
1708.000000	95.286802 
1707.000000	95.371443 
1706.000000	95.428346 
1705.000000	95.470582 
1704.000000	95.533411 
1703.000000	95.632930 
1702.000000	95.753580 
1701.000000	95.863949 
1700.000000	95.944971 
1699.000000	95.996778 
1698.000000	96.045646 
1697.000000	96.142918 
1696.000000	96.310911 
1695.000000	96.491179 
1694.000000	96.620576 
1693.000000	96.710088 
1692.000000	96.790975 
1691.000000	96.871331 
1690.000000	96.943231 
1689.000000	97.003229 
1688.000000	97.058850 
1687.000000	97.115145 
1686.000000	97.163829 
1685.000000	97.206293 
1684.000000	97.276359 
1683.000000	97.360890 
1682.000000	97.413688 
1681.000000	97.440512 
1680.000000	97.465678 
1679.000000	97.502313 
1678.000000	97.548324 
1677.000000	97.595186 
1676.000000	97.632893 
1675.000000	97.650445 
1674.000000	97.644844 
1673.000000	97.631434 
1672.000000	97.628099 
1671.000000	97.634887 
1670.000000	97.648200 
1669.000000	97.667740 
1668.000000	97.687733 
1667.000000	97.699101 
1666.000000	97.697523 
1665.000000	97.684228 
1664.000000	97.657890 
1663.000000	97.615953 
1662.000000	97.561987 
1661.000000	97.504292 
1660.000000	97.453359 
1659.000000	97.410263 
1658.000000	97.374146 
1657.000000	97.351173 
1656.000000	97.354473 
1655.000000	97.372935 
1654.000000	97.377012 
1653.000000	97.379288 
1652.000000	97.385373 
1651.000000	97.392624 
1650.000000	97.406338 
1649.000000	97.412363 
1648.000000	97.423468 
1647.000000	97.473623 
1646.000000	97.552207 
1645.000000	97.620348 
1644.000000	97.679699 
1643.000000	97.746058 
1642.000000	97.816795 
1641.000000	97.880323 
1640.000000	97.928687 
1639.000000	97.958242 
1638.000000	97.973386 
1637.000000	97.995184 
1636.000000	98.056613 
1635.000000	98.135314 
1634.000000	98.170403 
1633.000000	98.165183 
1632.000000	98.155131 
1631.000000	98.155553 
1630.000000	98.160853 
1629.000000	98.162113 
1628.000000	98.163124 
1627.000000	98.169813 
1626.000000	98.178825 
1625.000000	98.186324 
1624.000000	98.197444 
1623.000000	98.216257 
1622.000000	98.230838 
1621.000000	98.229380 
1620.000000	98.217113 
1619.000000	98.200052 
1618.000000	98.178245 
1617.000000	98.162025 
1616.000000	98.169192 
1615.000000	98.195450 
1614.000000	98.219852 
1613.000000	98.230959 
1612.000000	98.232558 
1611.000000	98.235308 
1610.000000	98.241436 
1609.000000	98.244217 
1608.000000	98.240719 
1607.000000	98.235863 
1606.000000	98.234189 
1605.000000	98.235370 
1604.000000	98.238081 
1603.000000	98.239054 
1602.000000	98.235973 
1601.000000	98.232443 
1600.000000	98.232937 
1599.000000	98.234184 
1598.000000	98.229765 
1597.000000	98.222908 
1596.000000	98.223431 
1595.000000	98.231995 
1594.000000	98.239235 
1593.000000	98.242102 
1592.000000	98.248566 
1591.000000	98.263416 
1590.000000	98.281705 
1589.000000	98.299057 
1588.000000	98.318308 
1587.000000	98.341978 
1586.000000	98.369542 
1585.000000	98.402412 
1584.000000	98.445090 
1583.000000	98.495995 
1582.000000	98.544099 
1581.000000	98.584429 
1580.000000	98.623181 
1579.000000	98.662802 
1578.000000	98.692259 
1577.000000	98.703347 
1576.000000	98.702191 
1575.000000	98.690861 
1574.000000	98.666193 
1573.000000	98.635948 
1572.000000	98.610336 
1571.000000	98.584546 
1570.000000	98.544534 
1569.000000	98.488738 
1568.000000	98.432385 
1567.000000	98.387774 
1566.000000	98.351467 
1565.000000	98.316887 
1564.000000	98.292421 
1563.000000	98.286774 
1562.000000	98.295354 
1561.000000	98.299301 
1560.000000	98.270791 
1559.000000	98.281775 
1558.000000	98.346963 
1557.000000	98.377384 
1556.000000	98.390654 
1555.000000	98.406370 
1554.000000	98.409464 
1553.000000	98.399665 
1552.000000	98.401296 
1551.000000	98.427860 
1550.000000	98.465483 
1549.000000	98.501682 
1548.000000	98.544960 
1547.000000	98.611472 
1546.000000	98.695486 
1545.000000	98.781045 
1544.000000	98.865724 
1543.000000	98.942941 
1542.000000	98.980153 
1541.000000	98.954109 
1540.000000	98.902273 
1539.000000	98.855669 
1538.000000	98.800663 
1537.000000	98.739288 
1536.000000	98.672050 
1535.000000	98.586940 
1534.000000	98.483476 
1533.000000	98.393446 
1532.000000	98.337785 
1531.000000	98.297074 
1530.000000	98.249778 
1529.000000	98.195619 
1528.000000	98.153055 
1527.000000	98.132516 
1526.000000	98.115662 
1525.000000	98.085660 
1524.000000	98.055422 
1523.000000	98.038777 
1522.000000	98.028224 
1521.000000	98.015214 
1520.000000	98.007387 
1519.000000	98.012281 
1518.000000	98.013637 
1517.000000	97.994063 
1516.000000	97.961694 
1515.000000	97.932496 
1514.000000	97.909905 
1513.000000	97.891366 
1512.000000	97.879872 
1511.000000	97.876392 
1510.000000	97.870698 
1509.000000	97.849737 
1508.000000	97.818255 
1507.000000	97.809597 
1506.000000	97.797597 
1505.000000	97.738621 
1504.000000	97.679544 
1503.000000	97.647687 
1502.000000	97.622438 
1501.000000	97.587621 
1500.000000	97.555604 
1499.000000	97.546369 
1498.000000	97.550160 
1497.000000	97.544009 
1496.000000	97.523264 
1495.000000	97.490313 
1494.000000	97.439008 
1493.000000	97.374551 
1492.000000	97.321702 
1491.000000	97.291344 
1490.000000	97.258674 
1489.000000	97.200528 
1488.000000	97.130482 
1487.000000	97.064285 
1486.000000	96.992881 
1485.000000	96.908096 
1484.000000	96.822015 
1483.000000	96.736953 
1482.000000	96.626457 
1481.000000	96.481073 
1480.000000	96.330536 
1479.000000	96.189334 
1478.000000	96.014375 
1477.000000	95.760297 
1476.000000	95.433216 
1475.000000	95.019412 
1474.000000	94.375709 
1473.000000	93.329869 
1472.000000	91.954150 
1471.000000	90.505982 
1470.000000	89.133278 
1469.000000	87.888200 
1468.000000	86.848352 
1467.000000	86.078773 
1466.000000	85.568202 
1465.000000	85.257951 
1464.000000	85.099695 
1463.000000	85.038172 
1462.000000	85.012142 
1461.000000	84.993292 
1460.000000	84.986130 
1459.000000	84.993047 
1458.000000	85.013970 
1457.000000	85.117356 
1456.000000	85.373937 
1455.000000	85.737967 
1454.000000	86.128318 
1453.000000	86.507204 
1452.000000	86.857444 
1451.000000	87.148195 
1450.000000	87.343279 
1449.000000	87.439592 
1448.000000	87.464065 
1447.000000	87.430729 
1446.000000	87.328089 
1445.000000	87.154955 
1444.000000	86.924832 
1443.000000	86.617554 
1442.000000	86.182279 
1441.000000	85.614981 
1440.000000	84.969913 
1439.000000	84.266331 
1438.000000	83.461952 
1437.000000	82.662414 
1436.000000	82.239928 
1435.000000	82.439208 
1434.000000	83.165910 
1433.000000	84.263360 
1432.000000	85.618749 
1431.000000	87.084132 
1430.000000	88.481695 
1429.000000	89.675616 
1428.000000	90.602263 
1427.000000	91.274155 
1426.000000	91.759170 
1425.000000	92.116257 
1424.000000	92.366985 
1423.000000	92.530163 
1422.000000	92.655042 
1421.000000	92.792293 
1420.000000	92.957586 
1419.000000	93.145470 
1418.000000	93.358931 
1417.000000	93.606754 
1416.000000	93.885966 
1415.000000	94.181498 
1414.000000	94.477818 
1413.000000	94.760243 
1412.000000	95.006413 
1411.000000	95.195402 
1410.000000	95.328192 
1409.000000	95.419115 
1408.000000	95.467684 
1407.000000	95.465111 
1406.000000	95.420425 
1405.000000	95.356115 
1404.000000	95.287176 
1403.000000	95.222756 
1402.000000	95.180595 
1401.000000	95.173103 
1400.000000	95.190359 
1399.000000	95.216025 
1398.000000	95.251278 
1397.000000	95.307019 
1396.000000	95.379738 
1395.000000	95.455464 
1394.000000	95.527123 
1393.000000	95.593285 
1392.000000	95.647819 
1391.000000	95.680551 
1390.000000	95.685489 
1389.000000	95.655637 
1388.000000	95.574793 
1387.000000	95.433343 
1386.000000	95.240255 
1385.000000	94.994412 
1384.000000	94.665726 
1383.000000	94.227141 
1382.000000	93.697416 
1381.000000	93.136039 
1380.000000	92.609728 
1379.000000	92.183885 
1378.000000	91.910292 
1377.000000	91.791548 
1376.000000	91.774338 
1375.000000	91.789087 
1374.000000	91.787589 
1373.000000	91.747137 
1372.000000	91.659395 
1371.000000	91.527829 
1370.000000	91.365111 
1369.000000	91.184739 
1368.000000	90.998261 
1367.000000	90.818543 
1366.000000	90.661092 
1365.000000	90.534997 
1364.000000	90.438668 
1363.000000	90.372078 
1362.000000	90.343562 
1361.000000	90.356280 
1360.000000	90.400010 
1359.000000	90.461596 
1358.000000	90.536007 
1357.000000	90.626221 
1356.000000	90.735172 
1355.000000	90.860150 
1354.000000	90.994520 
1353.000000	91.132324 
1352.000000	91.269986 
1351.000000	91.409241 
1350.000000	91.557675 
1349.000000	91.720377 
1348.000000	91.893140 
1347.000000	92.065048 
1346.000000	92.229392 
1345.000000	92.387469 
1344.000000	92.542697 
1343.000000	92.695166 
1342.000000	92.842776 
1341.000000	92.983136 
1340.000000	93.112806 
1339.000000	93.227061 
1338.000000	93.323477 
1337.000000	93.404059 
1336.000000	93.469439 
1335.000000	93.513583 
1334.000000	93.528009 
1333.000000	93.509659 
1332.000000	93.463460 
1331.000000	93.398467 
1330.000000	93.320402 
1329.000000	93.226608 
1328.000000	93.109921 
1327.000000	92.968983 
1326.000000	92.813073 
1325.000000	92.656417 
1324.000000	92.511777 
1323.000000	92.388591 
1322.000000	92.292859 
1321.000000	92.226212 
1320.000000	92.187015 
1319.000000	92.172857 
1318.000000	92.180652 
1317.000000	92.205213 
1316.000000	92.239963 
1315.000000	92.278465 
1314.000000	92.313494 
1313.000000	92.336589 
1312.000000	92.342466 
1311.000000	92.334073 
1310.000000	92.318459 
1309.000000	92.296321 
1308.000000	92.260576 
1307.000000	92.208891 
1306.000000	92.153265 
1305.000000	92.111439 
1304.000000	92.091169 
1303.000000	92.086508 
1302.000000	92.087934 
1301.000000	92.091076 
1300.000000	92.095899 
1299.000000	92.102236 
1298.000000	92.108528 
1297.000000	92.112666 
1296.000000	92.112700 
1295.000000	92.107912 
1294.000000	92.098940 
1293.000000	92.085760 
1292.000000	92.066445 
1291.000000	92.038966 
1290.000000	92.000929 
1289.000000	91.943442 
1288.000000	91.848336 
1287.000000	91.699733 
1286.000000	91.501048 
1285.000000	91.276611 
1284.000000	91.055903 
1283.000000	90.858605 
1282.000000	90.692222 
1281.000000	90.556622 
1280.000000	90.446076 
1279.000000	90.349569 
1278.000000	90.256048 
1277.000000	90.162239 
1276.000000	90.072303 
1275.000000	89.988178 
1274.000000	89.902897 
1273.000000	89.805860 
1272.000000	89.692613 
1271.000000	89.566904 
1270.000000	89.434383 
1269.000000	89.296980 
1268.000000	89.152702 
1267.000000	88.997939 
1266.000000	88.830313 
1265.000000	88.652120 
1264.000000	88.470206 
1263.000000	88.289106 
1262.000000	88.104534 
1261.000000	87.907117 
1260.000000	87.692679 
1259.000000	87.465246 
1258.000000	87.229945 
1257.000000	86.987437 
1256.000000	86.735543 
1255.000000	86.471804 
1254.000000	86.194035 
1253.000000	85.903425 
1252.000000	85.608377 
1251.000000	85.321373 
1250.000000	85.052096 
1249.000000	84.808859 
1248.000000	84.605496 
1247.000000	84.457788 
1246.000000	84.370660 
1245.000000	84.335630 
1244.000000	84.341978 
1243.000000	84.384325 
1242.000000	84.459767 
1241.000000	84.564989 
1240.000000	84.697103 
1239.000000	84.851859 
1238.000000	85.021072 
1237.000000	85.195930 
1236.000000	85.371226 
1235.000000	85.542568 
1234.000000	85.702327 
1233.000000	85.842742 
1232.000000	85.960283 
1231.000000	86.053157 
1230.000000	86.118206 
1229.000000	86.155078 
1228.000000	86.170340 
1227.000000	86.172175 
1226.000000	86.162493 
1225.000000	86.137912 
1224.000000	86.095366 
1223.000000	86.031411 
1222.000000	85.938691 
1221.000000	85.810076 
1220.000000	85.647086 
1219.000000	85.460352 
1218.000000	85.261710 
1217.000000	85.058328 
1216.000000	84.851624 
1215.000000	84.635904 
1214.000000	84.399558 
1213.000000	84.134336 
1212.000000	83.843198 
1211.000000	83.533726 
1210.000000	83.205965 
1209.000000	82.853704 
1208.000000	82.474869 
1207.000000	82.070896 
1206.000000	81.637690 
1205.000000	81.169378 
1204.000000	80.672448 
1203.000000	80.164878 
1202.000000	79.659139 
1201.000000	79.158024 
1200.000000	78.671379 
1199.000000	78.226938 
1198.000000	77.861705 
1197.000000	77.611608 
1196.000000	77.507680 
1195.000000	77.566953 
1194.000000	77.783751 
1193.000000	78.138458 
1192.000000	78.609276 
1191.000000	79.163240 
1190.000000	79.745268 
1189.000000	80.294334 
1188.000000	80.766891 
1187.000000	81.132954 
1186.000000	81.358525 
1185.000000	81.410078 
1184.000000	81.276289 
1183.000000	80.973471 
1182.000000	80.528729 
1181.000000	79.967086 
1180.000000	79.314440 
1179.000000	78.598619 
1178.000000	77.841523 
1177.000000	77.061711 
1176.000000	76.289811 
1175.000000	75.568575 
1174.000000	74.931995 
1173.000000	74.397346 
1172.000000	73.981013 
1171.000000	73.704231 
1170.000000	73.577564 
1169.000000	73.596959 
1168.000000	73.759849 
1167.000000	74.067914 
1166.000000	74.509953 
1165.000000	75.058531 
1164.000000	75.686913 
1163.000000	76.375705 
1162.000000	77.103321 
1161.000000	77.845312 
1160.000000	78.585418 
1159.000000	79.317159 
1158.000000	80.035536 
1157.000000	80.736759 
1156.000000	81.423529 
1155.000000	82.098955 
1154.000000	82.754494 
1153.000000	83.372539 
1152.000000	83.942223 
1151.000000	84.467058 
1150.000000	84.956563 
1149.000000	85.415196 
1148.000000	85.840765 
1147.000000	86.230305 
1146.000000	86.585501 
1145.000000	86.913943 
1144.000000	87.227245 
1143.000000	87.537720 
1142.000000	87.854067 
1141.000000	88.177708 
1140.000000	88.503229 
1139.000000	88.823505 
1138.000000	89.133594 
1137.000000	89.428531 
1136.000000	89.701786 
1135.000000	89.952654 
1134.000000	90.191849 
1133.000000	90.427847 
1132.000000	90.645157 
1131.000000	90.807279 
1130.000000	90.887625 
1129.000000	90.889627 
1128.000000	90.832603 
1127.000000	90.730207 
1126.000000	90.590991 
1125.000000	90.429132 
1124.000000	90.261835 
1123.000000	90.100402 
1122.000000	89.954194 
1121.000000	89.840883 
1120.000000	89.782000 
1119.000000	89.786793 
1118.000000	89.847831 
1117.000000	89.952913 
1116.000000	90.092586 
1115.000000	90.254821 
1114.000000	90.422572 
1113.000000	90.581181 
1112.000000	90.722701 
1111.000000	90.843392 
1110.000000	90.945207 
1109.000000	91.038255 
1108.000000	91.129137 
1107.000000	91.203532 
1106.000000	91.232779 
1105.000000	91.205380 
1104.000000	91.143765 
1103.000000	91.082460 
1102.000000	91.036108 
1101.000000	90.997244 
1100.000000	90.959687 
1099.000000	90.931521 
1098.000000	90.923947 
1097.000000	90.937188 
1096.000000	90.963326 
1095.000000	90.998865 
1094.000000	91.049516 
1093.000000	91.122741 
1092.000000	91.217538 
1091.000000	91.322773 
1090.000000	91.427094 
1089.000000	91.531651 
1088.000000	91.651675 
1087.000000	91.803169 
1086.000000	91.987075 
1085.000000	92.186895 
1084.000000	92.382259 
1083.000000	92.564937 
1082.000000	92.741338 
1081.000000	92.919827 
1080.000000	93.099113 
1079.000000	93.272377 
1078.000000	93.438230 
1077.000000	93.597710 
1076.000000	93.739939 
1075.000000	93.843616 
1074.000000	93.901374 
1073.000000	93.935055 
1072.000000	93.977313 
1071.000000	94.040668 
1070.000000	94.110386 
1069.000000	94.164531 
1068.000000	94.193362 
1067.000000	94.199662 
1066.000000	94.188597 
1065.000000	94.163217 
1064.000000	94.129259 
1063.000000	94.099891 
1062.000000	94.090267 
1061.000000	94.104808 
1060.000000	94.132842 
1059.000000	94.160705 
1058.000000	94.186336 
1057.000000	94.217458 
1056.000000	94.257814 
1055.000000	94.302169 
1054.000000	94.343741 
1053.000000	94.377495 
1052.000000	94.394584 
1051.000000	94.385587 
1050.000000	94.356435 
1049.000000	94.330070 
1048.000000	94.323565 
1047.000000	94.332311 
1046.000000	94.340893 
1045.000000	94.337638 
1044.000000	94.313611 
1043.000000	94.260968 
1042.000000	94.183237 
1041.000000	94.099704 
1040.000000	94.028592 
1039.000000	93.968871 
1038.000000	93.906658 
1037.000000	93.835443 
1036.000000	93.759667 
1035.000000	93.680813 
1034.000000	93.591693 
1033.000000	93.485857 
1032.000000	93.363772 
1031.000000	93.228623 
1030.000000	93.084751 
1029.000000	92.941737 
1028.000000	92.810018 
1027.000000	92.687242 
1026.000000	92.556666 
1025.000000	92.405598 
1024.000000	92.240089 
1023.000000	92.076277 
1022.000000	91.924147 
1021.000000	91.787901 
1020.000000	91.676362 
1019.000000	91.600374 
1018.000000	91.559566 
1017.000000	91.541984 
1016.000000	91.539715 
1015.000000	91.557785 
1014.000000	91.604942 
1013.000000	91.681571 
1012.000000	91.780087 
1011.000000	91.893061 
1010.000000	92.017399 
1009.000000	92.152557 
1008.000000	92.297458 
1007.000000	92.449120 
1006.000000	92.602996 
1005.000000	92.753730 
1004.000000	92.895251 
1003.000000	93.021488 
1002.000000	93.129256 
1001.000000	93.220146 
1000.000000	93.297058 
999.000000	 93.358806 
998.000000	 93.401299 
997.000000	 93.425216 
996.000000	 93.438880 
995.000000	 93.450128 
994.000000	 93.457922 
993.000000	 93.457331 
992.000000	 93.452878 
991.000000	 93.460934 
990.000000	 93.494984 
989.000000	 93.551843 
988.000000	 93.617072 
987.000000	 93.682726 
986.000000	 93.755368 
985.000000	 93.846489 
984.000000	 93.959161 
983.000000	 94.085228 
982.000000	 94.211907 
981.000000	 94.328982 
980.000000	 94.432706 
979.000000	 94.526507 
978.000000	 94.616791 
977.000000	 94.705375 
976.000000	 94.787940 
975.000000	 94.862677 
974.000000	 94.937060 
973.000000	 95.020563 
972.000000	 95.112247 
971.000000	 95.201810 
970.000000	 95.283155 
969.000000	 95.360776 
968.000000	 95.441212 
967.000000	 95.523795 
966.000000	 95.602354 
965.000000	 95.671707 
964.000000	 95.730236 
963.000000	 95.780709 
962.000000	 95.831725 
961.000000	 95.894247 
960.000000	 95.971634 
959.000000	 96.052711 
958.000000	 96.116804 
957.000000	 96.148158 
956.000000	 96.149549 
955.000000	 96.144456 
954.000000	 96.161052 
953.000000	 96.206863 
952.000000	 96.260528 
951.000000	 96.294660 
950.000000	 96.305303 
949.000000	 96.311963 
948.000000	 96.331822 
947.000000	 96.365409 
946.000000	 96.406441 
945.000000	 96.449558 
944.000000	 96.482184 
943.000000	 96.484819 
942.000000	 96.454341 
941.000000	 96.419005 
940.000000	 96.414505 
939.000000	 96.445839 
938.000000	 96.484101 
937.000000	 96.501593 
936.000000	 96.499290 
935.000000	 96.496557 
934.000000	 96.503652 
933.000000	 96.511649 
932.000000	 96.505264 
931.000000	 96.479316 
930.000000	 96.443710 
929.000000	 96.415923 
928.000000	 96.407086 
927.000000	 96.410475 
926.000000	 96.402366 
925.000000	 96.358630 
924.000000	 96.274994 
923.000000	 96.171379 
922.000000	 96.074289 
921.000000	 95.995042 
920.000000	 95.926603 
919.000000	 95.858538 
918.000000	 95.789172 
917.000000	 95.723431 
916.000000	 95.666356 
915.000000	 95.622973 
914.000000	 95.598905 
913.000000	 95.595093 
912.000000	 95.605460 
911.000000	 95.625989 
910.000000	 95.662927 
909.000000	 95.723275 
908.000000	 95.797223 
907.000000	 95.859463 
906.000000	 95.892799 
905.000000	 95.905674 
904.000000	 95.922181 
903.000000	 95.956578 
902.000000	 95.997859 
901.000000	 96.015856 
900.000000	 95.983359 
899.000000	 95.899324 
898.000000	 95.793818 
897.000000	 95.706032 
896.000000	 95.653535 
895.000000	 95.622092 
894.000000	 95.582285 
893.000000	 95.512331 
892.000000	 95.407661 
891.000000	 95.277184 
890.000000	 95.134473 
889.000000	 94.989484 
888.000000	 94.845882 
887.000000	 94.705269 
886.000000	 94.570923 
885.000000	 94.445607 
884.000000	 94.330692 
883.000000	 94.232695 
882.000000	 94.165657 
881.000000	 94.137809 
880.000000	 94.138087 
879.000000	 94.147107 
878.000000	 94.162903 
877.000000	 94.203454 
876.000000	 94.277908 
875.000000	 94.365142 
874.000000	 94.428324 
873.000000	 94.445698 
872.000000	 94.424084 
871.000000	 94.390374 
870.000000	 94.372915 
869.000000	 94.381654 
868.000000	 94.401130 
867.000000	 94.408520 
866.000000	 94.400845 
865.000000	 94.396819 
864.000000	 94.409956 
863.000000	 94.430641 
862.000000	 94.439663 
861.000000	 94.428186 
860.000000	 94.396230 
859.000000	 94.342910 
858.000000	 94.271650 
857.000000	 94.199314 
856.000000	 94.147016 
855.000000	 94.122118 
854.000000	 94.116153 
853.000000	 94.116677 
852.000000	 94.113372 
851.000000	 94.097377 
850.000000	 94.065646 
849.000000	 94.024768 
848.000000	 93.982341 
847.000000	 93.937689 
846.000000	 93.889944 
845.000000	 93.851129 
844.000000	 93.838962 
843.000000	 93.857982 
842.000000	 93.900252 
841.000000	 93.965362 
840.000000	 94.065364 
839.000000	 94.203002 
838.000000	 94.354695 
837.000000	 94.483585 
836.000000	 94.567168 
835.000000	 94.611127 
834.000000	 94.641835 
833.000000	 94.687165 
832.000000	 94.758793 
831.000000	 94.849104 
830.000000	 94.946153 
829.000000	 95.049252 
828.000000	 95.165076 
827.000000	 95.294258 
826.000000	 95.434521 
825.000000	 95.592438 
824.000000	 95.770120 
823.000000	 95.938688 
822.000000	 96.051252 
821.000000	 96.090329 
820.000000	 96.083041 
819.000000	 96.066811 
818.000000	 96.056184 
817.000000	 96.044665 
816.000000	 96.024445 
815.000000	 95.997357 
814.000000	 95.973679 
813.000000	 95.966083 
812.000000	 95.981206 
811.000000	 96.013846 
810.000000	 96.052321 
809.000000	 96.089965 
808.000000	 96.126033 
807.000000	 96.155859 
806.000000	 96.169911 
805.000000	 96.166510 
804.000000	 96.157516 
803.000000	 96.156316 
802.000000	 96.165945 
801.000000	 96.182606 
800.000000	 96.203337 
799.000000	 96.224429 
798.000000	 96.238705 
797.000000	 96.241195 
796.000000	 96.233780 
795.000000	 96.219665 
794.000000	 96.197400 
793.000000	 96.163620 
792.000000	 96.116153 
791.000000	 96.052371 
790.000000	 95.974087 
789.000000	 95.899693 
788.000000	 95.860120 
787.000000	 95.869726 
786.000000	 95.905069 
785.000000	 95.923471 
784.000000	 95.900313 
783.000000	 95.839449 
782.000000	 95.753634 
781.000000	 95.651433 
780.000000	 95.545431 
779.000000	 95.458185 
778.000000	 95.408939 
777.000000	 95.395562 
776.000000	 95.391510 
775.000000	 95.360130 
774.000000	 95.279016 
773.000000	 95.160402 
772.000000	 95.045099 
771.000000	 94.966485 
770.000000	 94.920723 
769.000000	 94.878921 
768.000000	 94.822742 
767.000000	 94.754309 
766.000000	 94.675472 
765.000000	 94.579596 
764.000000	 94.470530 
763.000000	 94.371529 
762.000000	 94.303158 
761.000000	 94.261485 
760.000000	 94.225347 
759.000000	 94.175674 
758.000000	 94.102574 
757.000000	 94.004945 
756.000000	 93.886644 
755.000000	 93.736911 
754.000000	 93.512607 
753.000000	 93.171896 
752.000000	 92.749564 
751.000000	 92.373922 
750.000000	 92.171194 
749.000000	 92.152036 
748.000000	 92.206322 
747.000000	 92.205682 
746.000000	 92.094990 
745.000000	 91.888342 
744.000000	 91.616061 
743.000000	 91.302084 
742.000000	 90.970407 
741.000000	 90.638698 
740.000000	 90.300494 
739.000000	 89.928603 
738.000000	 89.501577 
737.000000	 89.022679 
736.000000	 88.515100 
735.000000	 88.005044 
734.000000	 87.507745 
733.000000	 87.021649 
732.000000	 86.532267 
731.000000	 86.025042 
730.000000	 85.498826 
729.000000	 84.967007 
728.000000	 84.444545 
727.000000	 83.936489 
726.000000	 83.445450 
725.000000	 82.992849 
724.000000	 82.628472 
723.000000	 82.417060 
722.000000	 82.414232 
721.000000	 82.637460 
720.000000	 83.035733 
719.000000	 83.498463 
718.000000	 83.925644 
717.000000	 84.286841 
716.000000	 84.606600 
715.000000	 84.912432 
714.000000	 85.205384 
713.000000	 85.469692 
712.000000	 85.694906 
711.000000	 85.882364 
710.000000	 86.040110 
709.000000	 86.184345 
708.000000	 86.344915 
707.000000	 86.553195 
706.000000	 86.809074 
705.000000	 87.063563 
704.000000	 87.252086 
703.000000	 87.355563 
702.000000	 87.422442 
701.000000	 87.522300 
700.000000	 87.682279 
699.000000	 87.873907 
698.000000	 88.052174 
697.000000	 88.195914 
696.000000	 88.313921 
695.000000	 88.427119 
694.000000	 88.551993 
693.000000	 88.692653 
692.000000	 88.843070 
691.000000	 88.999722 
690.000000	 89.170115 
689.000000	 89.365815 
688.000000	 89.589636 
687.000000	 89.834702 
686.000000	 90.089807 
685.000000	 90.334543 
684.000000	 90.540915 
683.000000	 90.697619 
682.000000	 90.825844 
681.000000	 90.959862 
680.000000	 91.121604 
679.000000	 91.324422 
678.000000	 91.582872 
677.000000	 91.885257 
676.000000	 92.171020 
675.000000	 92.382822 
674.000000	 92.518965 
673.000000	 92.624211 
672.000000	 92.746741 
671.000000	 92.930935 
670.000000	 93.229073 
669.000000	 93.663801 
668.000000	 94.057843 
667.000000	 94.148735 
666.000000	 94.057448 
665.000000	 94.023182 
664.000000	 94.093369 
663.000000	 94.216962 
662.000000	 94.350854 
661.000000	 94.495934 
660.000000	 94.644151 
659.000000	 94.745317 
658.000000	 94.772626 
657.000000	 94.775267 
656.000000	 94.818755 
655.000000	 94.912418 
654.000000	 95.028520 
653.000000	 95.152541 
652.000000	 95.287155 
651.000000	 95.376601 
650.000000	 95.356779 

